# 17 Apr 2019
# Downloaded from https://www.thorlabs.com/newgrouppage9.cfm?objectgroup_id=7900
#
# 4 Megapixel Camera Quantum Efficiency 
#
# Wavelength (nm)   Quantum Efficiency
350                 0.18677
360                 0.23083
370                 0.27908
380                 0.34282
390                 0.39891
400                 0.4312
410                 0.446
420                 0.4593
430                 0.47787
440                 0.49688
450                 0.50904
460                 0.5133
470                 0.51366
480                 0.51588
490                 0.51735
500                 0.51715
510                 0.50725
520                 0.49788
530                 0.49224
540                 0.48771
550                 0.4819
560                 0.47694
570                 0.47215
580                 0.46458
590                 0.45128
600                 0.43451
610                 0.41961
620                 0.40179
630                 0.39117
640                 0.37416
650                 0.35467
660                 0.3406
670                 0.32265
680                 0.30014
690                 0.28097
700                 0.25967
710                 0.24499
720                 0.22539
730                 0.21404
740                 0.19989
750                 0.18847
760                 0.1747
770                 0.1675
780                 0.15405
790                 0.14486
800                 0.13244
810                 0.12275
820                 0.11285
830                 0.10343
840                 0.09266
850                 0.08521
860                 0.07467
870                 0.06876
880                 0.06038
890                 0.05448
900                 0.04812
910                 0.0425
920                 0.03736
930                 0.03215
940                 0.02888
950                 0.02445
960                 0.02128
970                 0.01823
980                 0.015
990                 0.01251
1000                0.01047
1010                0.00831
1020                0.00652
1030                0.00515
1040                0.00391
1050                0.00296
1060                0.00224
1070                0.00169
1080                0.00142
1090                0.00113
1100                0.000886641
