# Pulled from TotalThrougput.xlsx from Reni Kupke
# UV-enhanced Silter reflectivity data from David Sheik
# WAVE  ETA
 3000  0.9569
 3050  0.9724
 3100  0.9792
 3150  0.9814
 3200  0.9798
 3250  0.9692
 3300  0.9481
 3350  0.9587
 3400  0.9774
 3450  0.9823
 3500  0.9802
 3550  0.9754
 3600  0.9702
 3650  0.9664
 3700  0.9668
 3750  0.9689
 3800  0.9711
 3850  0.9718
 3900  0.9706
 3950  0.9671
 4000  0.9619
 4050  0.9572
 4100  0.9555
 4150  0.9584
 4200  0.9637
 4250  0.9687
 4300  0.9722
 4350  0.9739
 4400  0.9744
 4450  0.9733
 4500  0.9710
 4550  0.9671
 4600  0.9616
 4650  0.9546
 4700  0.9483
 4750  0.9442
 4800  0.9448
 4850  0.9496
 4900  0.9555
 4950  0.9613
 5000  0.9661
 5050  0.9697
 5100  0.9721
 5150  0.9735
 5200  0.9743
 5250  0.9744
 5300  0.9738
 5350  0.9724
 5400  0.9705
 5450  0.9678
 5500  0.9646
 5550  0.9604
 5600  0.9558
 5650  0.9510
 5700  0.9467
 5750  0.9434
 5800  0.9418
 5850  0.9422
 5900  0.9445
 5950  0.9479
 6000  0.9517
 6050  0.9553
 6100  0.9588
 6150  0.9621
 6200  0.9650
 6250  0.9669
 6300  0.9687
 6350  0.9701
 6400  0.9710
 6450  0.9716
 6500  0.9719
 6550  0.9721
 6600  0.9721
 6650  0.9717
 6700  0.9711
 6750  0.9705
 6800  0.9698
 6850  0.9687
 6900  0.9674
 6950  0.9661
 7000  0.9644
 7050  0.9630
 7100  0.9615
 7150  0.9598
 7200  0.9581
 7250  0.9565
 7300  0.9552
 7350  0.9534
 7400  0.9527
 7450  0.9523
 7500  0.9519
 7550  0.9516
 7600  0.9515
 7650  0.9517
 7700  0.9523
 7750  0.9529
 7800  0.9538
 7850  0.9547
 7900  0.9556
 7950  0.9563
 8000  0.9593
 8050  0.9621
 8100  0.9630
 8150  0.9637
 8200  0.9643
 8250  0.9648
 8300  0.9654
 8350  0.9657
 8400  0.9659
 8450  0.9659
 8500  0.9660
 8550  0.9659
 8600  0.9656
 8650  0.9654
 8700  0.9651
 8750  0.9645
 8800  0.9640
 8850  0.9634
 8900  0.9625
 8950  0.9617
 9000  0.9610
 9050  0.9598
 9100  0.9588
 9150  0.9580
 9200  0.9570
 9250  0.9559
 9300  0.9545
 9350  0.9532
 9400  0.9520
 9450  0.9506
 9500  0.9493
 9550  0.9484
 9600  0.9473
 9650  0.9462
 9700  0.9459
 9750  0.9456
 9800  0.9453
 9850  0.9456
 9900  0.9458
 9950  0.9457
10000  0.9465
10050  0.9474
10100  0.9478
10150  0.9485
10200  0.9500
10250  0.9515
10300  0.9530
10350  0.9542
10400  0.9551
10450  0.9562
10500  0.9579
10550  0.9595
10600  0.9603
10650  0.9613
10700  0.9625
10750  0.9636
10800  0.9650
10850  0.9661
10900  0.9669
10950  0.9676
11000  0.9686
11050  0.9695
11100  0.9700
11150  0.9706
11200  0.9714
11250  0.9721
11300  0.9725
11350  0.9729
11400  0.9730
11450  0.9732
11500  0.9738
11550  0.9744
11600  0.9746
11650  0.9748
11700  0.9750
11750  0.9752
11800  0.9756
11850  0.9759
11900  0.9759
11950  0.9760
12000  0.9762
12050  0.9763
12100  0.9764
12150  0.9764
12200  0.9765
12250  0.9766
12300  0.9766
12350  0.9767
12400  0.9767
12450  0.9767
12500  0.9766
12550  0.9765
12600  0.9764
12650  0.9762
12700  0.9762
12750  0.9762
12800  0.9761
12850  0.9759
12900  0.9757
12950  0.9754
13000  0.9752
