# Efficiency data for the WFOS red camera
# Provided by Jason Fucik, 07 Apr 2020
# Columns:
#    1 - Wavelength (nm)
#    2 - ADC
#    3 - Fold mirror (M4)
#    4 - 1st reflective collimator (CM1)
#    5 - 2nd reflective collimator (CM2)
#    6 - Dichroic
#    7 - 1st red-arm fold mirror (RM1)
#    8 - 2nd red-arm fold mirror (RM2)
#    9 - VPH glass (VPHG)
#   10 - VPH DCG layer (VPHDCG)
#   11 - VPH glue (VPHGLU)
#   12 - Camera
#   13 - Detector
#Wavelength       ADC          M4         CM1         CM2    Dichroic         RM1         RM2        VPHG      VPHDCG      VPHGLU      Camera    Detector
#       (1)       (2)         (3)         (4)         (5)         (6)         (7)         (8)         (9)        (10)        (11)        (12)        (13)
540.0000000 0.9739504   0.9786080   0.9786080   0.9786080   0.0000000   0.9900000   0.9900000   0.9604000   0.9946380   0.9849622   0.8880780   0.8952640
541.0000000 0.9740720   0.9789620   0.9789620   0.9789620   0.0000000   0.9900000   0.9900000   0.9604000   0.9946717   0.9849622   0.8880780   0.8958440
542.0000000 0.9741936   0.9793180   0.9793180   0.9793180   0.0007704   0.9900000   0.9900000   0.9604000   0.9947054   0.9849622   0.8880780   0.8964030
543.0000000 0.9743112   0.9796720   0.9796720   0.9796720   0.0250023   0.9900000   0.9900000   0.9604000   0.9947390   0.9849622   0.8880780   0.8969380
544.0000000 0.9744329   0.9800200   0.9800200   0.9800200   0.0678503   0.9900000   0.9900000   0.9604000   0.9947727   0.9849622   0.8880780   0.8974500
545.0000000 0.9745545   0.9803590   0.9803590   0.9803590   0.1253190   0.9900000   0.9900000   0.9604000   0.9948064   0.9849622   0.8880780   0.8979380
546.0000000 0.9746722   0.9806880   0.9806880   0.9806880   0.1938960   0.9900000   0.9900000   0.9604000   0.9948401   0.9849622   0.8880780   0.8984020
547.0000000 0.9747938   0.9810020   0.9810020   0.9810020   0.2700690   0.9900000   0.9900000   0.9604000   0.9948738   0.9849622   0.8880780   0.8988400
548.0000000 0.9749116   0.9813020   0.9813020   0.9813020   0.3503270   0.9900000   0.9900000   0.9604000   0.9949074   0.9849622   0.8880780   0.8992530
549.0000000 0.9750293   0.9815840   0.9815840   0.9815840   0.4332390   0.9900000   0.9900000   0.9604000   0.9949411   0.9849622   0.8880780   0.8996400
550.0000000 0.9751470   0.9818490   0.9818490   0.9818490   0.5202350   0.9900000   0.9900000   0.9604000   0.9949748   0.9849622   0.8880780   0.9000000
551.0000000 0.9752648   0.9820910   0.9820910   0.9820910   0.6068170   0.9900000   0.9900000   0.9604000   0.9950085   0.9849622   0.8880780   0.9003330
552.0000000 0.9753787   0.9823130   0.9823130   0.9823130   0.6884870   0.9900000   0.9900000   0.9604000   0.9950421   0.9849622   0.8880780   0.9006400
553.0000000 0.9754964   0.9825160   0.9825160   0.9825160   0.7607460   0.9900000   0.9900000   0.9604000   0.9950758   0.9849622   0.8880780   0.9009210
554.0000000 0.9756103   0.9827000   0.9827000   0.9827000   0.8224080   0.9900000   0.9900000   0.9604000   0.9951095   0.9849622   0.8880780   0.9011780
555.0000000 0.9757242   0.9828630   0.9828630   0.9828630   0.8746590   0.9900000   0.9900000   0.9604000   0.9951431   0.9849622   0.8880780   0.9014100
556.0000000 0.9758381   0.9830060   0.9830060   0.9830060   0.9175160   0.9900000   0.9900000   0.9604000   0.9951768   0.9849622   0.8880780   0.9016190
557.0000000 0.9759520   0.9831300   0.9831300   0.9831300   0.9509940   0.9900000   0.9900000   0.9604000   0.9952104   0.9849622   0.8880780   0.9018060
558.0000000 0.9760619   0.9832330   0.9832330   0.9832330   0.9751100   0.9900000   0.9900000   0.9604000   0.9952441   0.9849622   0.8880780   0.9019710
559.0000000 0.9761759   0.9833170   0.9833170   0.9833170   0.9919890   0.9900000   0.9900000   0.9604000   0.9952777   0.9849622   0.8880780   0.9021160
560.0000000 0.9762859   0.9833800   0.9833800   0.9833800   0.9995050   0.9900000   0.9900000   0.9604000   0.9953114   0.9849622   0.8880780   0.9022400
561.0000000 0.9763998   0.9834250   0.9834250   0.9834250   1.0005100   0.9900000   0.9900000   0.9604000   0.9953450   0.9849622   0.8880780   0.9023450
562.0000000 0.9765098   0.9834490   0.9834490   0.9834490   0.9978660   0.9900000   0.9900000   0.9604000   0.9953787   0.9849622   0.8880780   0.9024320
563.0000000 0.9766198   0.9834550   0.9834550   0.9834550   0.9944190   0.9900000   0.9900000   0.9604000   0.9954123   0.9849622   0.8880780   0.9025010
564.0000000 0.9767338   0.9834410   0.9834410   0.9834410   0.9961390   0.9900000   0.9900000   0.9604000   0.9954460   0.9849622   0.8880770   0.9025540
565.0000000 0.9768438   0.9834090   0.9834090   0.9834090   0.9970590   0.9900000   0.9900000   0.9604000   0.9954796   0.9849622   0.8880770   0.9025900
566.0000000 0.9769539   0.9833570   0.9833570   0.9833570   0.9973820   0.9900000   0.9900000   0.9604000   0.9955132   0.9849622   0.8880770   0.9026110
567.0000000 0.9770600   0.9832880   0.9832880   0.9832880   0.9973140   0.9900000   0.9900000   0.9604000   0.9955469   0.9849622   0.8880770   0.9026180
568.0000000 0.9771701   0.9832000   0.9832000   0.9832000   0.9970580   0.9900000   0.9900000   0.9604000   0.9955805   0.9849622   0.8880770   0.9026110
569.0000000 0.9772762   0.9830940   0.9830940   0.9830940   0.9970320   0.9900000   0.9900000   0.9604000   0.9956141   0.9849622   0.8880770   0.9025920
570.0000000 0.9773824   0.9829710   0.9829710   0.9829710   0.9968180   0.9900000   0.9900000   0.9604000   0.9956478   0.9849622   0.8880770   0.9025600
571.0000000 0.9774886   0.9828300   0.9828300   0.9828300   0.9964900   0.9900000   0.9900000   0.9604000   0.9956814   0.9849622   0.8880770   0.9025170
572.0000000 0.9775947   0.9826730   0.9826730   0.9826730   0.9961190   0.9900000   0.9900000   0.9604000   0.9957150   0.9849622   0.8880770   0.9024640
573.0000000 0.9777009   0.9824980   0.9824980   0.9824980   0.9957800   0.9900000   0.9900000   0.9604000   0.9957486   0.9849622   0.8880770   0.9024010
574.0000000 0.9778032   0.9823080   0.9823080   0.9823080   0.9955530   0.9900000   0.9900000   0.9604000   0.9957822   0.9849622   0.8880770   0.9023300
575.0000000 0.9779094   0.9821030   0.9821030   0.9821030   0.9953580   0.9900000   0.9900000   0.9604000   0.9958159   0.9849622   0.8880770   0.9022500
576.0000000 0.9780117   0.9818820   0.9818820   0.9818820   0.9952130   0.9900000   0.9900000   0.9604000   0.9958495   0.9849622   0.8880770   0.9021630
577.0000000 0.9781140   0.9816470   0.9816470   0.9816470   0.9951380   0.9900000   0.9900000   0.9604000   0.9958831   0.9849622   0.8880770   0.9020700
578.0000000 0.9782162   0.9814000   0.9814000   0.9814000   0.9951510   0.9900000   0.9900000   0.9604000   0.9959167   0.9849622   0.8880770   0.9019710
579.0000000 0.9783146   0.9811400   0.9811400   0.9811400   0.9953850   0.9900000   0.9900000   0.9604000   0.9959503   0.9849622   0.8880770   0.9018680
580.0000000 0.9784130   0.9808690   0.9808690   0.9808690   0.9957080   0.9900000   0.9900000   0.9604000   0.9959839   0.9849622   0.8880770   0.9017600
581.0000000 0.9785114   0.9805890   0.9805890   0.9805890   0.9960350   0.9900000   0.9900000   0.9604000   0.9960175   0.9849622   0.8880770   0.9016490
582.0000000 0.9786098   0.9803000   0.9803000   0.9803000   0.9962820   0.9900000   0.9900000   0.9604000   0.9960511   0.9849622   0.8880770   0.9015360
583.0000000 0.9787081   0.9800050   0.9800050   0.9800050   0.9963660   0.9900000   0.9900000   0.9604000   0.9960847   0.9849622   0.8880770   0.9014210
584.0000000 0.9788026   0.9797050   0.9797050   0.9797050   0.9960330   0.9900000   0.9900000   0.9604000   0.9961183   0.9849622   0.8880770   0.9013060
585.0000000 0.9788971   0.9794030   0.9794030   0.9794030   0.9955350   0.9900000   0.9900000   0.9604000   0.9961519   0.9849622   0.8880770   0.9011900
586.0000000 0.9789916   0.9791000   0.9791000   0.9791000   0.9949850   0.9900000   0.9900000   0.9604000   0.9961855   0.9849622   0.8880770   0.9010750
587.0000000 0.9790861   0.9788000   0.9788000   0.9788000   0.9944920   0.9900000   0.9900000   0.9604000   0.9962191   0.9849622   0.8880770   0.9009620
588.0000000 0.9791766   0.9785040   0.9785040   0.9785040   0.9941670   0.9900000   0.9900000   0.9604000   0.9962526   0.9849622   0.8880770   0.9008510
589.0000000 0.9792711   0.9782160   0.9782160   0.9782160   0.9943360   0.9900000   0.9900000   0.9604000   0.9962862   0.9849622   0.8880770   0.9007440
590.0000000 0.9793617   0.9779370   0.9779370   0.9779370   0.9946730   0.9900000   0.9900000   0.9604000   0.9963198   0.9849622   0.8880770   0.9006400
591.0000000 0.9794523   0.9776720   0.9776720   0.9776720   0.9950570   0.9900000   0.9900000   0.9604000   0.9963534   0.9849622   0.8880770   0.9005410
592.0000000 0.9795468   0.9774220   0.9774220   0.9774220   0.9953650   0.9900000   0.9900000   0.9604000   0.9963870   0.9849622   0.8880770   0.9004480
593.0000000 0.9796334   0.9771920   0.9771920   0.9771920   0.9954760   0.9900000   0.9900000   0.9604000   0.9964205   0.9849622   0.8880770   0.9003610
594.0000000 0.9797240   0.9769820   0.9769820   0.9769820   0.9950490   0.9900000   0.9900000   0.9604000   0.9964541   0.9849622   0.8880770   0.9002820
595.0000000 0.9798146   0.9767970   0.9767970   0.9767970   0.9944260   0.9900000   0.9900000   0.9604000   0.9964877   0.9849622   0.8880770   0.9002100
596.0000000 0.9799013   0.9766380   0.9766380   0.9766380   0.9937340   0.9900000   0.9900000   0.9604000   0.9965212   0.9849622   0.8880770   0.9001470
597.0000000 0.9799880   0.9765070   0.9765070   0.9765070   0.9931050   0.9900000   0.9900000   0.9604000   0.9965548   0.9849622   0.8880770   0.9000940
598.0000000 0.9800746   0.9764070   0.9764070   0.9764070   0.9926680   0.9900000   0.9900000   0.9604000   0.9965884   0.9849622   0.8880770   0.9000510
599.0000000 0.9801613   0.9763380   0.9763380   0.9763380   0.9926590   0.9900000   0.9900000   0.9604000   0.9966219   0.9849622   0.8880770   0.9000200
600.0000000 0.9802441   0.9763010   0.9763010   0.9763010   0.9928420   0.9900000   0.9900000   0.9604000   0.9966555   0.9849622   0.8880770   0.9000000
601.0000000 0.9803268   0.9762670   0.9762670   0.9762670   0.9931500   0.9900000   0.9900000   0.9604000   0.9966555   0.9849622   0.8880770   0.9000820
602.0000000 0.9804135   0.9762650   0.9762650   0.9762650   0.9935140   0.9900000   0.9900000   0.9604000   0.9966555   0.9849622   0.8880770   0.9001700
603.0000000 0.9804963   0.9762960   0.9762960   0.9762960   0.9938660   0.9900000   0.9900000   0.9604000   0.9966555   0.9849622   0.8880770   0.9002620
604.0000000 0.9805791   0.9763580   0.9763580   0.9763580   0.9942110   0.9900000   0.9900000   0.9604000   0.9966555   0.9849622   0.8880770   0.9003580
605.0000000 0.9806579   0.9764500   0.9764500   0.9764500   0.9945450   0.9900000   0.9900000   0.9604000   0.9966555   0.9849622   0.8880770   0.9004600
606.0000000 0.9807407   0.9765710   0.9765710   0.9765710   0.9948020   0.9900000   0.9900000   0.9604000   0.9966555   0.9849622   0.8880770   0.9005660
607.0000000 0.9808195   0.9767180   0.9767180   0.9767180   0.9949180   0.9900000   0.9900000   0.9604000   0.9966555   0.9849622   0.8880770   0.9006780
608.0000000 0.9808944   0.9768910   0.9768910   0.9768910   0.9948270   0.9900000   0.9900000   0.9604000   0.9966555   0.9849622   0.8880770   0.9007940
609.0000000 0.9809733   0.9770860   0.9770860   0.9770860   0.9942620   0.9900000   0.9900000   0.9604000   0.9966555   0.9849622   0.8880770   0.9009140
610.0000000 0.9810482   0.9773010   0.9773010   0.9773010   0.9934900   0.9900000   0.9900000   0.9604000   0.9966555   0.9849622   0.8880760   0.9010400
611.0000000 0.9811231   0.9775340   0.9775340   0.9775340   0.9926660   0.9900000   0.9900000   0.9604000   0.9966555   0.9849622   0.8880760   0.9011700
612.0000000 0.9811980   0.9777820   0.9777820   0.9777820   0.9919480   0.9900000   0.9900000   0.9604000   0.9966555   0.9849622   0.8880760   0.9013060
613.0000000 0.9812730   0.9780420   0.9780420   0.9780420   0.9914890   0.9900000   0.9900000   0.9604000   0.9966555   0.9849622   0.8880760   0.9014460
614.0000000 0.9813440   0.9783130   0.9783130   0.9783130   0.9915570   0.9900000   0.9900000   0.9604000   0.9966555   0.9849622   0.8880760   0.9015900
615.0000000 0.9814189   0.9785910   0.9785910   0.9785910   0.9918840   0.9900000   0.9900000   0.9604000   0.9966555   0.9849622   0.8880760   0.9017400
616.0000000 0.9814859   0.9788740   0.9788740   0.9788740   0.9923850   0.9900000   0.9900000   0.9604000   0.9966555   0.9849622   0.8880760   0.9018940
617.0000000 0.9815569   0.9791600   0.9791600   0.9791600   0.9929730   0.9900000   0.9900000   0.9604000   0.9966555   0.9849622   0.8880760   0.9020540
618.0000000 0.9816240   0.9794480   0.9794480   0.9794480   0.9935620   0.9900000   0.9900000   0.9604000   0.9966555   0.9849622   0.8880760   0.9022180
619.0000000 0.9816911   0.9797340   0.9797340   0.9797340   0.9941700   0.9900000   0.9900000   0.9604000   0.9966555   0.9849622   0.8880760   0.9023860
620.0000000 0.9817581   0.9800190   0.9800190   0.9800190   0.9947790   0.9900000   0.9900000   0.9604000   0.9966555   0.9849622   0.8880760   0.9025600
621.0000000 0.9818252   0.9802990   0.9802990   0.9802990   0.9952920   0.9900000   0.9900000   0.9604000   0.9966555   0.9849622   0.8880760   0.9027380
622.0000000 0.9818923   0.9805740   0.9805740   0.9805740   0.9956140   0.9900000   0.9900000   0.9604000   0.9966555   0.9849622   0.8880760   0.9029220
623.0000000 0.9819554   0.9808430   0.9808430   0.9808430   0.9956500   0.9900000   0.9900000   0.9604000   0.9966555   0.9849622   0.8880760   0.9031100
624.0000000 0.9820185   0.9811050   0.9811050   0.9811050   0.9951500   0.9900000   0.9900000   0.9604000   0.9966555   0.9849622   0.8880760   0.9033020
625.0000000 0.9820817   0.9813580   0.9813580   0.9813580   0.9943630   0.9900000   0.9900000   0.9604000   0.9966555   0.9849622   0.8880760   0.9035000
626.0000000 0.9821448   0.9816020   0.9816020   0.9816020   0.9934380   0.9900000   0.9900000   0.9604000   0.9966555   0.9849622   0.8880760   0.9037020
627.0000000 0.9822040   0.9818370   0.9818370   0.9818370   0.9925210   0.9900000   0.9900000   0.9604000   0.9966555   0.9849622   0.8880760   0.9039100
628.0000000 0.9822632   0.9820610   0.9820610   0.9820610   0.9917610   0.9900000   0.9900000   0.9604000   0.9966555   0.9849622   0.8880760   0.9041220
629.0000000 0.9823224   0.9822750   0.9822750   0.9822750   0.9913060   0.9900000   0.9900000   0.9604000   0.9966555   0.9849622   0.8880760   0.9043380
630.0000000 0.9823777   0.9824770   0.9824770   0.9824770   0.9910090   0.9900000   0.9900000   0.9604000   0.9966555   0.9849622   0.8880760   0.9045600
631.0000000 0.9824369   0.9826690   0.9826690   0.9826690   0.9908770   0.9900000   0.9900000   0.9604000   0.9966555   0.9849622   0.8880760   0.9047860
632.0000000 0.9824921   0.9828490   0.9828490   0.9828490   0.9909170   0.9900000   0.9900000   0.9604000   0.9966555   0.9849622   0.8880760   0.9050180
633.0000000 0.9825474   0.9830170   0.9830170   0.9830170   0.9911400   0.9900000   0.9900000   0.9604000   0.9966555   0.9849622   0.8880760   0.9052540
634.0000000 0.9825987   0.9831740   0.9831740   0.9831740   0.9916580   0.9900000   0.9900000   0.9604000   0.9966555   0.9849622   0.8880760   0.9054940
635.0000000 0.9826540   0.9833190   0.9833190   0.9833190   0.9923570   0.9900000   0.9900000   0.9604000   0.9966555   0.9849622   0.8880760   0.9057400
636.0000000 0.9827053   0.9834530   0.9834530   0.9834530   0.9931140   0.9900000   0.9900000   0.9604000   0.9966555   0.9849622   0.8880760   0.9059900
637.0000000 0.9827566   0.9835740   0.9835740   0.9835740   0.9938020   0.9900000   0.9900000   0.9604000   0.9966555   0.9849622   0.8880760   0.9062460
638.0000000 0.9828040   0.9836840   0.9836840   0.9836840   0.9942970   0.9900000   0.9900000   0.9604000   0.9966555   0.9849622   0.8880760   0.9065060
639.0000000 0.9828553   0.9837820   0.9837820   0.9837820   0.9944080   0.9900000   0.9900000   0.9604000   0.9966555   0.9849622   0.8880760   0.9067700
640.0000000 0.9829027   0.9838690   0.9838690   0.9838690   0.9943260   0.9900000   0.9900000   0.9604000   0.9966555   0.9849622   0.8880760   0.9070400
641.0000000 0.9829501   0.9839440   0.9839440   0.9839440   0.9941020   0.9900000   0.9900000   0.9604000   0.9966555   0.9849622   0.8880760   0.9073140
642.0000000 0.9830014   0.9840070   0.9840070   0.9840070   0.9937890   0.9900000   0.9900000   0.9604000   0.9966555   0.9849622   0.8880760   0.9075940
643.0000000 0.9830488   0.9840590   0.9840590   0.9840590   0.9934370   0.9900000   0.9900000   0.9604000   0.9966555   0.9849622   0.8880760   0.9078780
644.0000000 0.9830923   0.9841000   0.9841000   0.9841000   0.9930350   0.9900000   0.9900000   0.9604000   0.9966555   0.9849622   0.8880760   0.9081660
645.0000000 0.9831397   0.9841300   0.9841300   0.9841300   0.9925940   0.9900000   0.9900000   0.9604000   0.9966555   0.9849622   0.8880760   0.9084600
646.0000000 0.9831831   0.9841480   0.9841480   0.9841480   0.9921880   0.9900000   0.9900000   0.9604000   0.9966555   0.9849622   0.8880760   0.9087580
647.0000000 0.9832266   0.9841550   0.9841550   0.9841550   0.9918910   0.9900000   0.9900000   0.9604000   0.9966555   0.9849622   0.8880760   0.9090620
648.0000000 0.9832700   0.9841510   0.9841510   0.9841510   0.9917770   0.9900000   0.9900000   0.9604000   0.9966555   0.9849622   0.8880760   0.9093700
649.0000000 0.9833095   0.9841370   0.9841370   0.9841370   0.9920150   0.9900000   0.9900000   0.9604000   0.9966555   0.9849622   0.8880760   0.9096820
650.0000000 0.9833490   0.9841110   0.9841110   0.9841110   0.9924350   0.9900000   0.9900000   0.9604000   0.9966555   0.9849622   0.8880760   0.9100000
651.0000000 0.9833885   0.9840950   0.9840950   0.9840950   0.9929500   0.9900000   0.9900000   0.9604000   0.9966555   0.9849622   0.8880760   0.9103100
652.0000000 0.9834280   0.9840690   0.9840690   0.9840690   0.9934750   0.9900000   0.9900000   0.9604000   0.9966555   0.9849622   0.8880760   0.9106260
653.0000000 0.9834635   0.9840320   0.9840320   0.9840320   0.9939200   0.9900000   0.9900000   0.9604000   0.9966555   0.9849622   0.8880760   0.9109480
654.0000000 0.9835030   0.9839860   0.9839860   0.9839860   0.9942510   0.9900000   0.9900000   0.9604000   0.9966555   0.9849622   0.8880760   0.9112760
655.0000000 0.9835347   0.9839290   0.9839290   0.9839290   0.9945030   0.9900000   0.9900000   0.9604000   0.9966555   0.9849622   0.8880760   0.9116100
656.0000000 0.9835702   0.9838620   0.9838620   0.9838620   0.9946400   0.9900000   0.9900000   0.9604000   0.9966555   0.9849622   0.8880760   0.9119490
657.0000000 0.9836058   0.9837860   0.9837860   0.9837860   0.9946270   0.9900000   0.9900000   0.9604000   0.9966555   0.9849622   0.8880760   0.9122940
658.0000000 0.9836374   0.9837000   0.9837000   0.9837000   0.9944280   0.9900000   0.9900000   0.9604000   0.9966555   0.9849622   0.8880760   0.9126450
659.0000000 0.9836650   0.9836040   0.9836040   0.9836040   0.9939130   0.9900000   0.9900000   0.9604000   0.9966555   0.9849622   0.8880760   0.9130000
660.0000000 0.9836966   0.9834980   0.9834980   0.9834980   0.9932120   0.9900000   0.9900000   0.9604000   0.9966555   0.9849622   0.8880760   0.9133600
661.0000000 0.9837282   0.9833830   0.9833830   0.9833830   0.9924300   0.9900000   0.9900000   0.9604000   0.9966555   0.9849622   0.8880760   0.9137250
662.0000000 0.9837559   0.9832590   0.9832590   0.9832590   0.9916730   0.9900000   0.9900000   0.9604000   0.9966555   0.9849622   0.8880760   0.9140950
663.0000000 0.9837875   0.9831260   0.9831260   0.9831260   0.9910470   0.9900000   0.9900000   0.9604000   0.9966555   0.9849622   0.8880760   0.9144690
664.0000000 0.9838152   0.9829840   0.9829840   0.9829840   0.9906070   0.9900000   0.9900000   0.9604000   0.9966555   0.9849622   0.8880760   0.9148470
665.0000000 0.9838389   0.9828330   0.9828330   0.9828330   0.9902980   0.9900000   0.9900000   0.9604000   0.9966555   0.9849622   0.8880760   0.9152300
666.0000000 0.9838665   0.9826730   0.9826730   0.9826730   0.9901450   0.9900000   0.9900000   0.9604000   0.9966555   0.9849622   0.8880760   0.9156170
667.0000000 0.9838902   0.9825050   0.9825050   0.9825050   0.9901710   0.9900000   0.9900000   0.9604000   0.9966555   0.9849622   0.8880760   0.9160070
668.0000000 0.9839140   0.9823290   0.9823290   0.9823290   0.9904010   0.9900000   0.9900000   0.9604000   0.9966555   0.9849622   0.8880760   0.9164010
669.0000000 0.9839377   0.9821450   0.9821450   0.9821450   0.9909310   0.9900000   0.9900000   0.9604000   0.9966555   0.9849622   0.8880750   0.9167990
670.0000000 0.9839574   0.9819530   0.9819530   0.9819530   0.9916640   0.9900000   0.9900000   0.9604000   0.9966555   0.9849622   0.8880750   0.9172000
671.0000000 0.9839772   0.9817550   0.9817550   0.9817550   0.9924940   0.9900000   0.9900000   0.9604000   0.9966555   0.9849622   0.8880750   0.9176040
672.0000000 0.9840009   0.9815500   0.9815500   0.9815500   0.9933110   0.9900000   0.9900000   0.9604000   0.9966555   0.9849622   0.8880750   0.9180120
673.0000000 0.9840207   0.9813380   0.9813380   0.9813380   0.9940080   0.9900000   0.9900000   0.9604000   0.9966555   0.9849622   0.8880750   0.9184220
674.0000000 0.9840365   0.9811210   0.9811210   0.9811210   0.9945320   0.9900000   0.9900000   0.9604000   0.9966555   0.9849622   0.8880750   0.9188350
675.0000000 0.9840562   0.9808990   0.9808990   0.9808990   0.9949350   0.9900000   0.9900000   0.9604000   0.9966555   0.9849622   0.8880750   0.9192500
676.0000000 0.9840720   0.9806720   0.9806720   0.9806720   0.9951860   0.9900000   0.9900000   0.9604000   0.9966555   0.9849622   0.8880750   0.9196680
677.0000000 0.9840878   0.9804410   0.9804410   0.9804410   0.9952530   0.9900000   0.9900000   0.9604000   0.9966555   0.9849622   0.8880750   0.9200880
678.0000000 0.9840997   0.9802070   0.9802070   0.9802070   0.9951030   0.9900000   0.9900000   0.9604000   0.9966555   0.9849622   0.8880750   0.9205100
679.0000000 0.9841155   0.9799710   0.9799710   0.9799710   0.9946570   0.9900000   0.9900000   0.9604000   0.9966555   0.9849622   0.8880750   0.9209340
680.0000000 0.9841274   0.9797340   0.9797340   0.9797340   0.9939950   0.9900000   0.9900000   0.9604000   0.9966555   0.9849622   0.8880750   0.9213600
681.0000000 0.9841392   0.9794950   0.9794950   0.9794950   0.9932150   0.9900000   0.9900000   0.9604000   0.9966555   0.9849622   0.8880750   0.9217870
682.0000000 0.9841550   0.9792570   0.9792570   0.9792570   0.9924130   0.9900000   0.9900000   0.9604000   0.9966555   0.9849622   0.8880750   0.9222160
683.0000000 0.9841669   0.9790210   0.9790210   0.9790210   0.9916880   0.9900000   0.9900000   0.9604000   0.9966555   0.9849622   0.8880750   0.9226470
684.0000000 0.9841748   0.9787870   0.9787870   0.9787870   0.9910780   0.9900000   0.9900000   0.9604000   0.9966555   0.9849622   0.8880750   0.9230780
685.0000000 0.9841866   0.9785570   0.9785570   0.9785570   0.9905440   0.9900000   0.9900000   0.9604000   0.9966555   0.9849622   0.8880750   0.9235100
686.0000000 0.9841985   0.9783320   0.9783320   0.9783320   0.9901340   0.9900000   0.9900000   0.9604000   0.9966555   0.9849622   0.8880750   0.9239430
687.0000000 0.9842064   0.9781120   0.9781120   0.9781120   0.9898950   0.9900000   0.9900000   0.9604000   0.9966555   0.9849622   0.8880750   0.9243770
688.0000000 0.9842143   0.9779000   0.9779000   0.9779000   0.9898720   0.9900000   0.9900000   0.9604000   0.9966555   0.9849622   0.8880750   0.9248110
689.0000000 0.9842183   0.9776960   0.9776960   0.9776960   0.9901260   0.9900000   0.9900000   0.9604000   0.9966555   0.9849622   0.8880750   0.9252450
690.0000000 0.9842262   0.9775020   0.9775020   0.9775020   0.9905970   0.9900000   0.9900000   0.9604000   0.9966555   0.9849622   0.8880750   0.9256800
691.0000000 0.9842341   0.9773190   0.9773190   0.9773190   0.9912110   0.9900000   0.9900000   0.9604000   0.9966555   0.9849622   0.8880750   0.9261150
692.0000000 0.9842380   0.9771480   0.9771480   0.9771480   0.9918950   0.9900000   0.9900000   0.9604000   0.9966555   0.9849622   0.8880750   0.9265490
693.0000000 0.9842459   0.9769900   0.9769900   0.9769900   0.9925750   0.9900000   0.9900000   0.9604000   0.9966555   0.9849622   0.8880750   0.9269830
694.0000000 0.9842499   0.9768470   0.9768470   0.9768470   0.9932310   0.9900000   0.9900000   0.9604000   0.9966555   0.9849622   0.8880750   0.9274170
695.0000000 0.9842538   0.9767190   0.9767190   0.9767190   0.9938830   0.9900000   0.9900000   0.9604000   0.9966555   0.9849622   0.8880750   0.9278500
696.0000000 0.9842578   0.9766070   0.9766070   0.9766070   0.9944700   0.9900000   0.9900000   0.9604000   0.9966555   0.9849622   0.8880750   0.9282820
697.0000000 0.9842578   0.9765120   0.9765120   0.9765120   0.9949310   0.9900000   0.9900000   0.9604000   0.9966555   0.9849622   0.8880750   0.9287140
698.0000000 0.9842617   0.9764350   0.9764350   0.9764350   0.9952030   0.9900000   0.9900000   0.9604000   0.9966555   0.9849622   0.8880750   0.9291440
699.0000000 0.9842617   0.9763770   0.9763770   0.9763770   0.9952390   0.9900000   0.9900000   0.9604000   0.9966555   0.9849622   0.8880750   0.9295730
700.0000000 0.9842617   0.9763370   0.9763370   0.9763370   0.9950870   0.9900000   0.9900000   0.9604000   0.9966555   0.9849622   0.8880750   0.9300000
701.0000000 0.9842617   0.9763180   0.9763180   0.9763180   0.9947870   0.9900000   0.9900000   0.9604000   0.9966555   0.9849622   0.8880770   0.9304270
702.0000000 0.9842617   0.9763210   0.9763210   0.9763210   0.9943820   0.9900000   0.9900000   0.9604000   0.9966555   0.9849622   0.8880790   0.9308560
703.0000000 0.9842617   0.9763470   0.9763470   0.9763470   0.9939110   0.9900000   0.9900000   0.9604000   0.9966555   0.9849622   0.8880810   0.9312860
704.0000000 0.9842617   0.9763960   0.9763960   0.9763960   0.9933880   0.9900000   0.9900000   0.9604000   0.9966555   0.9849622   0.8880830   0.9317180
705.0000000 0.9842578   0.9764670   0.9764670   0.9764670   0.9928000   0.9900000   0.9900000   0.9604000   0.9966555   0.9849622   0.8880850   0.9321500
706.0000000 0.9842578   0.9765590   0.9765590   0.9765590   0.9922080   0.9900000   0.9900000   0.9604000   0.9966555   0.9849622   0.8880870   0.9325830
707.0000000 0.9842538   0.9766730   0.9766730   0.9766730   0.9916740   0.9900000   0.9900000   0.9604000   0.9966555   0.9849622   0.8880890   0.9330170
708.0000000 0.9842459   0.9768060   0.9768060   0.9768060   0.9912590   0.9900000   0.9900000   0.9604000   0.9966555   0.9849622   0.8880910   0.9334510
709.0000000 0.9842420   0.9769580   0.9769580   0.9769580   0.9910060   0.9900000   0.9900000   0.9604000   0.9966555   0.9849622   0.8880930   0.9338850
710.0000000 0.9842341   0.9771280   0.9771280   0.9771280   0.9908720   0.9900000   0.9900000   0.9604000   0.9966555   0.9849622   0.8880950   0.9343200
711.0000000 0.9842262   0.9773150   0.9773150   0.9773150   0.9908490   0.9900000   0.9900000   0.9604000   0.9966555   0.9849622   0.8880970   0.9347550
712.0000000 0.9842183   0.9775160   0.9775160   0.9775160   0.9909260   0.9900000   0.9900000   0.9604000   0.9966555   0.9849622   0.8880990   0.9351890
713.0000000 0.9842104   0.9777310   0.9777310   0.9777310   0.9910960   0.9900000   0.9900000   0.9604000   0.9966555   0.9849622   0.8881010   0.9356230
714.0000000 0.9842025   0.9779590   0.9779590   0.9779590   0.9913580   0.9900000   0.9900000   0.9604000   0.9966555   0.9849622   0.8881030   0.9360570
715.0000000 0.9841906   0.9781970   0.9781970   0.9781970   0.9917120   0.9900000   0.9900000   0.9604000   0.9966555   0.9849622   0.8881040   0.9364900
716.0000000 0.9841787   0.9784450   0.9784450   0.9784450   0.9921110   0.9900000   0.9900000   0.9604000   0.9966555   0.9849622   0.8881060   0.9369220
717.0000000 0.9841669   0.9787010   0.9787010   0.9787010   0.9925050   0.9900000   0.9900000   0.9604000   0.9966555   0.9849622   0.8881080   0.9373540
718.0000000 0.9841550   0.9789640   0.9789640   0.9789640   0.9928460   0.9900000   0.9900000   0.9604000   0.9966555   0.9849622   0.8881100   0.9377840
719.0000000 0.9841392   0.9792310   0.9792310   0.9792310   0.9931030   0.9900000   0.9900000   0.9604000   0.9966555   0.9849622   0.8881120   0.9382130
720.0000000 0.9841234   0.9795030   0.9795030   0.9795030   0.9933080   0.9900000   0.9900000   0.9604000   0.9966555   0.9849622   0.8881140   0.9386400
721.0000000 0.9841076   0.9797770   0.9797770   0.9797770   0.9934510   0.9900000   0.9900000   0.9604000   0.9966555   0.9849622   0.8881160   0.9390660
722.0000000 0.9840918   0.9800530   0.9800530   0.9800530   0.9935220   0.9900000   0.9900000   0.9604000   0.9966555   0.9849622   0.8881180   0.9394900
723.0000000 0.9840760   0.9803290   0.9803290   0.9803290   0.9935100   0.9900000   0.9900000   0.9604000   0.9966555   0.9849622   0.8881200   0.9399120
724.0000000 0.9840602   0.9806050   0.9806050   0.9806050   0.9934040   0.9900000   0.9900000   0.9604000   0.9966555   0.9849622   0.8881220   0.9403320
725.0000000 0.9840404   0.9808800   0.9808800   0.9808800   0.9932160   0.9900000   0.9900000   0.9604000   0.9966555   0.9849622   0.8881240   0.9407500
726.0000000 0.9840207   0.9811520   0.9811520   0.9811520   0.9929760   0.9900000   0.9900000   0.9604000   0.9966555   0.9849622   0.8881260   0.9411650
727.0000000 0.9840009   0.9814210   0.9814210   0.9814210   0.9927160   0.9900000   0.9900000   0.9604000   0.9966555   0.9849622   0.8881280   0.9415780
728.0000000 0.9839811   0.9816860   0.9816860   0.9816860   0.9924650   0.9900000   0.9900000   0.9604000   0.9966555   0.9849622   0.8881300   0.9419880
729.0000000 0.9839614   0.9819470   0.9819470   0.9819470   0.9922440   0.9900000   0.9900000   0.9604000   0.9966555   0.9849622   0.8881320   0.9423960
730.0000000 0.9839377   0.9822030   0.9822030   0.9822030   0.9920330   0.9900000   0.9900000   0.9604000   0.9966555   0.9849622   0.8881340   0.9428000
731.0000000 0.9839140   0.9824540   0.9824540   0.9824540   0.9918480   0.9900000   0.9900000   0.9604000   0.9966555   0.9849622   0.8881360   0.9432010
732.0000000 0.9838942   0.9826990   0.9826990   0.9826990   0.9917060   0.9900000   0.9900000   0.9604000   0.9966555   0.9849622   0.8881380   0.9435990
733.0000000 0.9838705   0.9829380   0.9829380   0.9829380   0.9916240   0.9900000   0.9900000   0.9604000   0.9966555   0.9849622   0.8881400   0.9439930
734.0000000 0.9838468   0.9831710   0.9831710   0.9831710   0.9916160   0.9900000   0.9900000   0.9604000   0.9966555   0.9849622   0.8881420   0.9443830
735.0000000 0.9838231   0.9833970   0.9833970   0.9833970   0.9916690   0.9900000   0.9900000   0.9604000   0.9966555   0.9849622   0.8881440   0.9447700
736.0000000 0.9837954   0.9836160   0.9836160   0.9836160   0.9917640   0.9900000   0.9900000   0.9604000   0.9966555   0.9849622   0.8881460   0.9451530
737.0000000 0.9837678   0.9838280   0.9838280   0.9838280   0.9918860   0.9900000   0.9900000   0.9604000   0.9966555   0.9849622   0.8881480   0.9455310
738.0000000 0.9837401   0.9840330   0.9840330   0.9840330   0.9920180   0.9900000   0.9900000   0.9604000   0.9966555   0.9849622   0.8881500   0.9459050
739.0000000 0.9837124   0.9842310   0.9842310   0.9842310   0.9921510   0.9900000   0.9900000   0.9604000   0.9966555   0.9849622   0.8881520   0.9462750
740.0000000 0.9836848   0.9844210   0.9844210   0.9844210   0.9922940   0.9900000   0.9900000   0.9604000   0.9966555   0.9849622   0.8881540   0.9466400
741.0000000 0.9836571   0.9846050   0.9846050   0.9846050   0.9924320   0.9900000   0.9900000   0.9604000   0.9966555   0.9849622   0.8881560   0.9470000
742.0000000 0.9836255   0.9847800   0.9847800   0.9847800   0.9925500   0.9900000   0.9900000   0.9604000   0.9966555   0.9849622   0.8881580   0.9473560
743.0000000 0.9835979   0.9849490   0.9849490   0.9849490   0.9926310   0.9900000   0.9900000   0.9604000   0.9966555   0.9849622   0.8881590   0.9477060
744.0000000 0.9835663   0.9851100   0.9851100   0.9851100   0.9926560   0.9900000   0.9900000   0.9604000   0.9966555   0.9849622   0.8881610   0.9480500
745.0000000 0.9835347   0.9852640   0.9852640   0.9852640   0.9926450   0.9900000   0.9900000   0.9604000   0.9966555   0.9849622   0.8881630   0.9483900
746.0000000 0.9835030   0.9854110   0.9854110   0.9854110   0.9926070   0.9900000   0.9900000   0.9604000   0.9966555   0.9849622   0.8881650   0.9487240
747.0000000 0.9834675   0.9855500   0.9855500   0.9855500   0.9925530   0.9900000   0.9900000   0.9604000   0.9966555   0.9849622   0.8881670   0.9490520
748.0000000 0.9834359   0.9856830   0.9856830   0.9856830   0.9924920   0.9900000   0.9900000   0.9604000   0.9966555   0.9849622   0.8881690   0.9493740
749.0000000 0.9834003   0.9858080   0.9858080   0.9858080   0.9924170   0.9900000   0.9900000   0.9604000   0.9966555   0.9849622   0.8881710   0.9496900
750.0000000 0.9833648   0.9859260   0.9859260   0.9859260   0.9923360   0.9900000   0.9900000   0.9604000   0.9966555   0.9849622   0.8881730   0.9500000
751.0000000 0.9833292   0.9860180   0.9860180   0.9860180   0.9922630   0.9900000   0.9900000   0.9604000   0.9966555   0.9849622   0.8881750   0.9502630
752.0000000 0.9832937   0.9861030   0.9861030   0.9861030   0.9922140   0.9900000   0.9900000   0.9604000   0.9966555   0.9849622   0.8881770   0.9505180
753.0000000 0.9832581   0.9861810   0.9861810   0.9861810   0.9922050   0.9900000   0.9900000   0.9604000   0.9966555   0.9849622   0.8881790   0.9507650
754.0000000 0.9832226   0.9862530   0.9862530   0.9862530   0.9922470   0.9900000   0.9900000   0.9604000   0.9966555   0.9849622   0.8881810   0.9510060
755.0000000 0.9831831   0.9863190   0.9863190   0.9863190   0.9923290   0.9900000   0.9900000   0.9604000   0.9966555   0.9849622   0.8881830   0.9512400
756.0000000 0.9831476   0.9863790   0.9863790   0.9863790   0.9924430   0.9900000   0.9900000   0.9604000   0.9966555   0.9849622   0.8881850   0.9514670
757.0000000 0.9831081   0.9864330   0.9864330   0.9864330   0.9925840   0.9900000   0.9900000   0.9604000   0.9966555   0.9849622   0.8881870   0.9516890
758.0000000 0.9830686   0.9864800   0.9864800   0.9864800   0.9927450   0.9900000   0.9900000   0.9604000   0.9966555   0.9849622   0.8881890   0.9519050
759.0000000 0.9830251   0.9865220   0.9865220   0.9865220   0.9929410   0.9900000   0.9900000   0.9604000   0.9966555   0.9849622   0.8881910   0.9521150
760.0000000 0.9829856   0.9865570   0.9865570   0.9865570   0.9931560   0.9900000   0.9900000   0.9604000   0.9966555   0.9849622   0.8881930   0.9523200
761.0000000 0.9829462   0.9865870   0.9865870   0.9865870   0.9933680   0.9900000   0.9900000   0.9604000   0.9966555   0.9849622   0.8881950   0.9525200
762.0000000 0.9829027   0.9866100   0.9866100   0.9866100   0.9935550   0.9900000   0.9900000   0.9604000   0.9966555   0.9849622   0.8881970   0.9527160
763.0000000 0.9828593   0.9866280   0.9866280   0.9866280   0.9936930   0.9900000   0.9900000   0.9604000   0.9966555   0.9849622   0.8881990   0.9529080
764.0000000 0.9828198   0.9866400   0.9866400   0.9866400   0.9937920   0.9900000   0.9900000   0.9604000   0.9966555   0.9849622   0.8882010   0.9530960
765.0000000 0.9827764   0.9866460   0.9866460   0.9866460   0.9938420   0.9900000   0.9900000   0.9604000   0.9966555   0.9849622   0.8882030   0.9532800
766.0000000 0.9827290   0.9866470   0.9866470   0.9866470   0.9938370   0.9900000   0.9900000   0.9604000   0.9966555   0.9849622   0.8882050   0.9534610
767.0000000 0.9826856   0.9866420   0.9866420   0.9866420   0.9937700   0.9900000   0.9900000   0.9604000   0.9966555   0.9849622   0.8882070   0.9536390
768.0000000 0.9826382   0.9866310   0.9866310   0.9866310   0.9936350   0.9900000   0.9900000   0.9604000   0.9966555   0.9849622   0.8882090   0.9538150
769.0000000 0.9825948   0.9866140   0.9866140   0.9866140   0.9934300   0.9900000   0.9900000   0.9604000   0.9966555   0.9849622   0.8882110   0.9539880
770.0000000 0.9825474   0.9865920   0.9865920   0.9865920   0.9931560   0.9900000   0.9900000   0.9604000   0.9966555   0.9849622   0.8882130   0.9541600
771.0000000 0.9825000   0.9865640   0.9865640   0.9865640   0.9928360   0.9900000   0.9900000   0.9604000   0.9966555   0.9849622   0.8882140   0.9543300
772.0000000 0.9824566   0.9865310   0.9865310   0.9865310   0.9924900   0.9900000   0.9900000   0.9604000   0.9966555   0.9849622   0.8882160   0.9544990
773.0000000 0.9824092   0.9864920   0.9864920   0.9864920   0.9921420   0.9900000   0.9900000   0.9604000   0.9966555   0.9849622   0.8882180   0.9546660
774.0000000 0.9823619   0.9864470   0.9864470   0.9864470   0.9917820   0.9900000   0.9900000   0.9604000   0.9966555   0.9849622   0.8882200   0.9548330
775.0000000 0.9823106   0.9863970   0.9863970   0.9863970   0.9914190   0.9900000   0.9900000   0.9604000   0.9966555   0.9849622   0.8882220   0.9550000
776.0000000 0.9822632   0.9863420   0.9863420   0.9863420   0.9910800   0.9900000   0.9900000   0.9604000   0.9966555   0.9849622   0.8882240   0.9551670
777.0000000 0.9822158   0.9862800   0.9862800   0.9862800   0.9907920   0.9900000   0.9900000   0.9604000   0.9966555   0.9849622   0.8882260   0.9553340
778.0000000 0.9821645   0.9862140   0.9862140   0.9862140   0.9905820   0.9900000   0.9900000   0.9604000   0.9966555   0.9849622   0.8882280   0.9555010
779.0000000 0.9821132   0.9861410   0.9861410   0.9861410   0.9904360   0.9900000   0.9900000   0.9604000   0.9966555   0.9849622   0.8882300   0.9556700
780.0000000 0.9820619   0.9860630   0.9860630   0.9860630   0.9903680   0.9900000   0.9900000   0.9604000   0.9966555   0.9849622   0.8882320   0.9558400
781.0000000 0.9820106   0.9859800   0.9859800   0.9859800   0.9903800   0.9900000   0.9900000   0.9604000   0.9966555   0.9849622   0.8882340   0.9560120
782.0000000 0.9819593   0.9858910   0.9858910   0.9858910   0.9904720   0.9900000   0.9900000   0.9604000   0.9966555   0.9849622   0.8882360   0.9561850
783.0000000 0.9819081   0.9857970   0.9857970   0.9857970   0.9906470   0.9900000   0.9900000   0.9604000   0.9966555   0.9849622   0.8882380   0.9563610
784.0000000 0.9818528   0.9856970   0.9856970   0.9856970   0.9908930   0.9900000   0.9900000   0.9604000   0.9966555   0.9849622   0.8882400   0.9565390
785.0000000 0.9818015   0.9855910   0.9855910   0.9855910   0.9912200   0.9900000   0.9900000   0.9604000   0.9966555   0.9849622   0.8882420   0.9567200
786.0000000 0.9817463   0.9854800   0.9854800   0.9854800   0.9916050   0.9900000   0.9900000   0.9604000   0.9966555   0.9849622   0.8882440   0.9569040
787.0000000 0.9816911   0.9853630   0.9853630   0.9853630   0.9920190   0.9900000   0.9900000   0.9604000   0.9966555   0.9849622   0.8882460   0.9570920
788.0000000 0.9816358   0.9852410   0.9852410   0.9852410   0.9924370   0.9900000   0.9900000   0.9604000   0.9966555   0.9849622   0.8882480   0.9572840
789.0000000 0.9815806   0.9851140   0.9851140   0.9851140   0.9928570   0.9900000   0.9900000   0.9604000   0.9966555   0.9849622   0.8882500   0.9574800
790.0000000 0.9815254   0.9849810   0.9849810   0.9849810   0.9932810   0.9900000   0.9900000   0.9604000   0.9966555   0.9849622   0.8882520   0.9576800
791.0000000 0.9814702   0.9848420   0.9848420   0.9848420   0.9936810   0.9900000   0.9900000   0.9604000   0.9966555   0.9849622   0.8882540   0.9578850
792.0000000 0.9814149   0.9846980   0.9846980   0.9846980   0.9940310   0.9900000   0.9900000   0.9604000   0.9966555   0.9849622   0.8882560   0.9580950
793.0000000 0.9813558   0.9845490   0.9845490   0.9845490   0.9943040   0.9900000   0.9900000   0.9604000   0.9966555   0.9849622   0.8882580   0.9583110
794.0000000 0.9813006   0.9843950   0.9843950   0.9843950   0.9945100   0.9900000   0.9900000   0.9604000   0.9966555   0.9849622   0.8882600   0.9585320
795.0000000 0.9812414   0.9842350   0.9842350   0.9842350   0.9946400   0.9900000   0.9900000   0.9604000   0.9966555   0.9849622   0.8882620   0.9587600
796.0000000 0.9811823   0.9840700   0.9840700   0.9840700   0.9946910   0.9900000   0.9900000   0.9604000   0.9966555   0.9849622   0.8882640   0.9589940
797.0000000 0.9811231   0.9839000   0.9839000   0.9839000   0.9946630   0.9900000   0.9900000   0.9604000   0.9966555   0.9849622   0.8882660   0.9592340
798.0000000 0.9810640   0.9837250   0.9837250   0.9837250   0.9945560   0.9900000   0.9900000   0.9604000   0.9966555   0.9849622   0.8882680   0.9594820
799.0000000 0.9810048   0.9835450   0.9835450   0.9835450   0.9943850   0.9900000   0.9900000   0.9604000   0.9966555   0.9849622   0.8882700   0.9597370
800.0000000 0.9809457   0.9833600   0.9833600   0.9833600   0.9941340   0.9900000   0.9900000   0.9604000   0.9966555   0.9849622   0.8882710   0.9600000
801.0000000 0.9808865   0.9831770   0.9831770   0.9831770   0.9938280   0.9900000   0.9900000   0.9604000   0.9966555   0.9849622   0.8882730   0.9603120
802.0000000 0.9808274   0.9829900   0.9829900   0.9829900   0.9934920   0.9900000   0.9900000   0.9604000   0.9966555   0.9849622   0.8882750   0.9606310
803.0000000 0.9807643   0.9827990   0.9827990   0.9827990   0.9931500   0.9900000   0.9900000   0.9604000   0.9966555   0.9849622   0.8882770   0.9609560
804.0000000 0.9807052   0.9826040   0.9826040   0.9826040   0.9928070   0.9900000   0.9900000   0.9604000   0.9966555   0.9849622   0.8882790   0.9612870
805.0000000 0.9806421   0.9824060   0.9824060   0.9824060   0.9924590   0.9900000   0.9900000   0.9604000   0.9966555   0.9849622   0.8882810   0.9616240
806.0000000 0.9805791   0.9822060   0.9822060   0.9822060   0.9921290   0.9900000   0.9900000   0.9604000   0.9966555   0.9849622   0.8882830   0.9619660
807.0000000 0.9805160   0.9820020   0.9820020   0.9820020   0.9918390   0.9900000   0.9900000   0.9604000   0.9966555   0.9849622   0.8882850   0.9623140
808.0000000 0.9804529   0.9817950   0.9817950   0.9817950   0.9916150   0.9900000   0.9900000   0.9604000   0.9966555   0.9849622   0.8882870   0.9626670
809.0000000 0.9803899   0.9815870   0.9815870   0.9815870   0.9914470   0.9900000   0.9900000   0.9604000   0.9966555   0.9849622   0.8882890   0.9630260
810.0000000 0.9803268   0.9813760   0.9813760   0.9813760   0.9913450   0.9900000   0.9900000   0.9604000   0.9966555   0.9849622   0.8882910   0.9633890
811.0000000 0.9802638   0.9811630   0.9811630   0.9811630   0.9913080   0.9900000   0.9900000   0.9604000   0.9966555   0.9849622   0.8882930   0.9637570
812.0000000 0.9802007   0.9809500   0.9809500   0.9809500   0.9913390   0.9900000   0.9900000   0.9604000   0.9966555   0.9849622   0.8882950   0.9641300
813.0000000 0.9801337   0.9807350   0.9807350   0.9807350   0.9914390   0.9900000   0.9900000   0.9604000   0.9966555   0.9849622   0.8882970   0.9645070
814.0000000 0.9800707   0.9805190   0.9805190   0.9805190   0.9915910   0.9900000   0.9900000   0.9604000   0.9966555   0.9849622   0.8882990   0.9648890
815.0000000 0.9800037   0.9803040   0.9803040   0.9803040   0.9918120   0.9900000   0.9900000   0.9604000   0.9966555   0.9849622   0.8883010   0.9652750
816.0000000 0.9799367   0.9800890   0.9800890   0.9800890   0.9920820   0.9900000   0.9900000   0.9604000   0.9966555   0.9849622   0.8883030   0.9656640
817.0000000 0.9798698   0.9798740   0.9798740   0.9798740   0.9923800   0.9900000   0.9900000   0.9604000   0.9966555   0.9849622   0.8883050   0.9660570
818.0000000 0.9798028   0.9796610   0.9796610   0.9796610   0.9926870   0.9900000   0.9900000   0.9604000   0.9966555   0.9849622   0.8883070   0.9664540
819.0000000 0.9797358   0.9794500   0.9794500   0.9794500   0.9929960   0.9900000   0.9900000   0.9604000   0.9966555   0.9849622   0.8883090   0.9668550
820.0000000 0.9796689   0.9792410   0.9792410   0.9792410   0.9933130   0.9900000   0.9900000   0.9604000   0.9966555   0.9849622   0.8883110   0.9672580
821.0000000 0.9796019   0.9790340   0.9790340   0.9790340   0.9936180   0.9900000   0.9900000   0.9604000   0.9966555   0.9849622   0.8883130   0.9676650
822.0000000 0.9795350   0.9788310   0.9788310   0.9788310   0.9938910   0.9900000   0.9900000   0.9604000   0.9966555   0.9849622   0.8883150   0.9680740
823.0000000 0.9794641   0.9786320   0.9786320   0.9786320   0.9941110   0.9900000   0.9900000   0.9604000   0.9966555   0.9849622   0.8883170   0.9684860
824.0000000 0.9793971   0.9784370   0.9784370   0.9784370   0.9942850   0.9900000   0.9900000   0.9604000   0.9966555   0.9849622   0.8883190   0.9689010
825.0000000 0.9793262   0.9782480   0.9782480   0.9782480   0.9944070   0.9900000   0.9900000   0.9604000   0.9966555   0.9849622   0.8883210   0.9693180
826.0000000 0.9792593   0.9780640   0.9780640   0.9780640   0.9944740   0.9900000   0.9900000   0.9604000   0.9966555   0.9849622   0.8883230   0.9697370
827.0000000 0.9791884   0.9778860   0.9778860   0.9778860   0.9944840   0.9900000   0.9900000   0.9604000   0.9966555   0.9849622   0.8883250   0.9701590
828.0000000 0.9791175   0.9777150   0.9777150   0.9777150   0.9944350   0.9900000   0.9900000   0.9604000   0.9966555   0.9849622   0.8883270   0.9705820
829.0000000 0.9790467   0.9775510   0.9775510   0.9775510   0.9943390   0.9900000   0.9900000   0.9604000   0.9966555   0.9849622   0.8883290   0.9710060
830.0000000 0.9789758   0.9773960   0.9773960   0.9773960   0.9941850   0.9900000   0.9900000   0.9604000   0.9966555   0.9849622   0.8883300   0.9714330
831.0000000 0.9789050   0.9772480   0.9772480   0.9772480   0.9939880   0.9900000   0.9900000   0.9604000   0.9966555   0.9849622   0.8883320   0.9718600
832.0000000 0.9788341   0.9771100   0.9771100   0.9771100   0.9937640   0.9900000   0.9900000   0.9604000   0.9966555   0.9849622   0.8883340   0.9722890
833.0000000 0.9787633   0.9769810   0.9769810   0.9769810   0.9935310   0.9900000   0.9900000   0.9604000   0.9966555   0.9849622   0.8883360   0.9727190
834.0000000 0.9786924   0.9768620   0.9768620   0.9768620   0.9932920   0.9900000   0.9900000   0.9604000   0.9966555   0.9849622   0.8883380   0.9731490
835.0000000 0.9786216   0.9767530   0.9767530   0.9767530   0.9930440   0.9900000   0.9900000   0.9604000   0.9966555   0.9849622   0.8883400   0.9735800
836.0000000 0.9785468   0.9766550   0.9766550   0.9766550   0.9928030   0.9900000   0.9900000   0.9604000   0.9966555   0.9849622   0.8883420   0.9740110
837.0000000 0.9784759   0.9765680   0.9765680   0.9765680   0.9925890   0.9900000   0.9900000   0.9604000   0.9966555   0.9849622   0.8883440   0.9744430
838.0000000 0.9784012   0.9764930   0.9764930   0.9764930   0.9924190   0.9900000   0.9900000   0.9604000   0.9966555   0.9849622   0.8883460   0.9748750
839.0000000 0.9783303   0.9764290   0.9764290   0.9764290   0.9922850   0.9900000   0.9900000   0.9604000   0.9966555   0.9849622   0.8883480   0.9753070
840.0000000 0.9782556   0.9763770   0.9763770   0.9763770   0.9921960   0.9900000   0.9900000   0.9604000   0.9966555   0.9849622   0.8883500   0.9757380
841.0000000 0.9781808   0.9763360   0.9763360   0.9763360   0.9921540   0.9900000   0.9900000   0.9604000   0.9966555   0.9849622   0.8883520   0.9761690
842.0000000 0.9781100   0.9763080   0.9763080   0.9763080   0.9921640   0.9900000   0.9900000   0.9604000   0.9966555   0.9849622   0.8883540   0.9766000
843.0000000 0.9780353   0.9762920   0.9762920   0.9762920   0.9922290   0.9900000   0.9900000   0.9604000   0.9966555   0.9849622   0.8883560   0.9770290
844.0000000 0.9779605   0.9762890   0.9762890   0.9762890   0.9923360   0.9900000   0.9900000   0.9604000   0.9966555   0.9849622   0.8883580   0.9774580
845.0000000 0.9778858   0.9762970   0.9762970   0.9762970   0.9924970   0.9900000   0.9900000   0.9604000   0.9966555   0.9849622   0.8883600   0.9778850
846.0000000 0.9778111   0.9763170   0.9763170   0.9763170   0.9927010   0.9900000   0.9900000   0.9604000   0.9966555   0.9849622   0.8883620   0.9783120
847.0000000 0.9777363   0.9763500   0.9763500   0.9763500   0.9929330   0.9900000   0.9900000   0.9604000   0.9966555   0.9849622   0.8883640   0.9787360
848.0000000 0.9776616   0.9763940   0.9763940   0.9763940   0.9931810   0.9900000   0.9900000   0.9604000   0.9966555   0.9849622   0.8883660   0.9791600
849.0000000 0.9775829   0.9764490   0.9764490   0.9764490   0.9934400   0.9900000   0.9900000   0.9604000   0.9966555   0.9849622   0.8883680   0.9795810
850.0000000 0.9775082   0.9765150   0.9765150   0.9765150   0.9937150   0.9900000   0.9900000   0.9604000   0.9966555   0.9849622   0.8883700   0.9800000
851.0000000 0.9774335   0.9766110   0.9766110   0.9766110   0.9939880   0.9900000   0.9900000   0.9604000   0.9966555   0.9849622   0.8883720   0.9805430
852.0000000 0.9773549   0.9767180   0.9767180   0.9767180   0.9942410   0.9900000   0.9900000   0.9604000   0.9966555   0.9849622   0.8883740   0.9810920
853.0000000 0.9772802   0.9768340   0.9768340   0.9768340   0.9944590   0.9900000   0.9900000   0.9604000   0.9966555   0.9849622   0.8883760   0.9816440
854.0000000 0.9772055   0.9769590   0.9769590   0.9769590   0.9946480   0.9900000   0.9900000   0.9604000   0.9966555   0.9849622   0.8883780   0.9821980
855.0000000 0.9771269   0.9770930   0.9770930   0.9770930   0.9948010   0.9900000   0.9900000   0.9604000   0.9966555   0.9849622   0.8883800   0.9827510
856.0000000 0.9770522   0.9772360   0.9772360   0.9772360   0.9949110   0.9900000   0.9900000   0.9604000   0.9966555   0.9849622   0.8883820   0.9833010
857.0000000 0.9769735   0.9773860   0.9773860   0.9773860   0.9949710   0.9900000   0.9900000   0.9604000   0.9966555   0.9849622   0.8883840   0.9838450
858.0000000 0.9768989   0.9775440   0.9775440   0.9775440   0.9949740   0.9900000   0.9900000   0.9604000   0.9966555   0.9849622   0.8883860   0.9843810
859.0000000 0.9768203   0.9777080   0.9777080   0.9777080   0.9949360   0.9900000   0.9900000   0.9604000   0.9966555   0.9849622   0.8883880   0.9849060
860.0000000 0.9767417   0.9778790   0.9778790   0.9778790   0.9948410   0.9900000   0.9900000   0.9604000   0.9966555   0.9849622   0.8883890   0.9854190
861.0000000 0.9766631   0.9780560   0.9780560   0.9780560   0.9946980   0.9900000   0.9900000   0.9604000   0.9966555   0.9849622   0.8883910   0.9859170
862.0000000 0.9765845   0.9782380   0.9782380   0.9782380   0.9945170   0.9900000   0.9900000   0.9604000   0.9966555   0.9849622   0.8883930   0.9863970
863.0000000 0.9765098   0.9784240   0.9784240   0.9784240   0.9943070   0.9900000   0.9900000   0.9604000   0.9966555   0.9849622   0.8883950   0.9868580
864.0000000 0.9764312   0.9786150   0.9786150   0.9786150   0.9940770   0.9900000   0.9900000   0.9604000   0.9966555   0.9849622   0.8883970   0.9872970
865.0000000 0.9763526   0.9788090   0.9788090   0.9788090   0.9938190   0.9900000   0.9900000   0.9604000   0.9966555   0.9849622   0.8883990   0.9877110
866.0000000 0.9762741   0.9790060   0.9790060   0.9790060   0.9935480   0.9900000   0.9900000   0.9604000   0.9966555   0.9849622   0.8884010   0.9880990
867.0000000 0.9761955   0.9792060   0.9792060   0.9792060   0.9932810   0.9900000   0.9900000   0.9604000   0.9966555   0.9849622   0.8884030   0.9884580
868.0000000 0.9761130   0.9794080   0.9794080   0.9794080   0.9930360   0.9900000   0.9900000   0.9604000   0.9966555   0.9849622   0.8884050   0.9887850
869.0000000 0.9760344   0.9796120   0.9796120   0.9796120   0.9928060   0.9900000   0.9900000   0.9604000   0.9966555   0.9849622   0.8884070   0.9890780
870.0000000 0.9759559   0.9798170   0.9798170   0.9798170   0.9925970   0.9900000   0.9900000   0.9604000   0.9966555   0.9849622   0.8884090   0.9893360
871.0000000 0.9758773   0.9800230   0.9800230   0.9800230   0.9924210   0.9900000   0.9900000   0.9604000   0.9966555   0.9849622   0.8884110   0.9895550
872.0000000 0.9757949   0.9802300   0.9802300   0.9802300   0.9922870   0.9900000   0.9900000   0.9604000   0.9966555   0.9849622   0.8884130   0.9897330
873.0000000 0.9757163   0.9804360   0.9804360   0.9804360   0.9922060   0.9900000   0.9900000   0.9604000   0.9966555   0.9849622   0.8884150   0.9898680
874.0000000 0.9756378   0.9806430   0.9806430   0.9806430   0.9921620   0.9900000   0.9900000   0.9604000   0.9966555   0.9849622   0.8884170   0.9899580
875.0000000 0.9755553   0.9808490   0.9808490   0.9808490   0.9921710   0.9900000   0.9900000   0.9604000   0.9966555   0.9849622   0.8884190   0.9900000
876.0000000 0.9754768   0.9810540   0.9810540   0.9810540   0.9922310   0.9900000   0.9900000   0.9604000   0.9966555   0.9849622   0.8884210   0.9901780
877.0000000 0.9753944   0.9812580   0.9812580   0.9812580   0.9923370   0.9900000   0.9900000   0.9604000   0.9966555   0.9849622   0.8884230   0.9903290
878.0000000 0.9753119   0.9814600   0.9814600   0.9814600   0.9924860   0.9900000   0.9900000   0.9604000   0.9966555   0.9849622   0.8884250   0.9904490
879.0000000 0.9752334   0.9816610   0.9816610   0.9816610   0.9926640   0.9900000   0.9900000   0.9604000   0.9966555   0.9849622   0.8884270   0.9905360
880.0000000 0.9751510   0.9818600   0.9818600   0.9818600   0.9928860   0.9900000   0.9900000   0.9604000   0.9966555   0.9849622   0.8884290   0.9905880
881.0000000 0.9750685   0.9820560   0.9820560   0.9820560   0.9931370   0.9900000   0.9900000   0.9604000   0.9966555   0.9849622   0.8884310   0.9906010
882.0000000 0.9749900   0.9822510   0.9822510   0.9822510   0.9934020   0.9900000   0.9900000   0.9604000   0.9966555   0.9849622   0.8884330   0.9905730
883.0000000 0.9749076   0.9824430   0.9824430   0.9824430   0.9936670   0.9900000   0.9900000   0.9604000   0.9966555   0.9849622   0.8884350   0.9905010
884.0000000 0.9748252   0.9826320   0.9826320   0.9826320   0.9939320   0.9900000   0.9900000   0.9604000   0.9966555   0.9849622   0.8884370   0.9903830
885.0000000 0.9747428   0.9828190   0.9828190   0.9828190   0.9941970   0.9900000   0.9900000   0.9604000   0.9966555   0.9849622   0.8884390   0.9902160
886.0000000 0.9746604   0.9830020   0.9830020   0.9830020   0.9944480   0.9900000   0.9900000   0.9604000   0.9966555   0.9849622   0.8884410   0.9899970
887.0000000 0.9745780   0.9831830   0.9831830   0.9831830   0.9946700   0.9900000   0.9900000   0.9604000   0.9966555   0.9849622   0.8884430   0.9897230
888.0000000 0.9744956   0.9833600   0.9833600   0.9833600   0.9948480   0.9900000   0.9900000   0.9604000   0.9966555   0.9849622   0.8884450   0.9893930
889.0000000 0.9744132   0.9835350   0.9835350   0.9835350   0.9949980   0.9900000   0.9900000   0.9604000   0.9966555   0.9849622   0.8884470   0.9890020
890.0000000 0.9743309   0.9837060   0.9837060   0.9837060   0.9951040   0.9900000   0.9900000   0.9604000   0.9966555   0.9849622   0.8884490   0.9885500
891.0000000 0.9742485   0.9838740   0.9838740   0.9838740   0.9951630   0.9900000   0.9900000   0.9604000   0.9966555   0.9849622   0.8884500   0.9880320
892.0000000 0.9741661   0.9840380   0.9840380   0.9840380   0.9951700   0.9900000   0.9900000   0.9604000   0.9966555   0.9849622   0.8884520   0.9874460
893.0000000 0.9740798   0.9841990   0.9841990   0.9841990   0.9951220   0.9900000   0.9900000   0.9604000   0.9966555   0.9849622   0.8884540   0.9867900
894.0000000 0.9739975   0.9843570   0.9843570   0.9843570   0.9950370   0.9900000   0.9900000   0.9604000   0.9966555   0.9849622   0.8884560   0.9860610
895.0000000 0.9739151   0.9845110   0.9845110   0.9845110   0.9948970   0.9900000   0.9900000   0.9604000   0.9966555   0.9849622   0.8884580   0.9852560
896.0000000 0.9738328   0.9846610   0.9846610   0.9846610   0.9947110   0.9900000   0.9900000   0.9604000   0.9966555   0.9849622   0.8884600   0.9843720
897.0000000 0.9737465   0.9848080   0.9848080   0.9848080   0.9944870   0.9900000   0.9900000   0.9604000   0.9966555   0.9849622   0.8884620   0.9834070
898.0000000 0.9736642   0.9849510   0.9849510   0.9849510   0.9942370   0.9900000   0.9900000   0.9604000   0.9966555   0.9849622   0.8884640   0.9823590
899.0000000 0.9735779   0.9850910   0.9850910   0.9850910   0.9939700   0.9900000   0.9900000   0.9604000   0.9966555   0.9849622   0.8884660   0.9812240
900.0000000 0.9734956   0.9852280   0.9852280   0.9852280   0.9936760   0.9900000   0.9900000   0.9604000   0.9966555   0.9849622   0.8884680   0.9800000
901.0000000 0.9734133   0.9853570   0.9853570   0.9853570   0.9933700   0.9900000   0.9900000   0.9604000   0.9966555   0.9849622   0.8884150   0.9792330
902.0000000 0.9733270   0.9854830   0.9854830   0.9854830   0.9930670   0.9900000   0.9900000   0.9604000   0.9966555   0.9849622   0.8883620   0.9784230
903.0000000 0.9732447   0.9856050   0.9856050   0.9856050   0.9927830   0.9900000   0.9900000   0.9604000   0.9966555   0.9849622   0.8883090   0.9775660
904.0000000 0.9731624   0.9857240   0.9857240   0.9857240   0.9925110   0.9900000   0.9900000   0.9604000   0.9966555   0.9849622   0.8882550   0.9766610
905.0000000 0.9730762   0.9858400   0.9858400   0.9858400   0.9922580   0.9900000   0.9900000   0.9604000   0.9966555   0.9849622   0.8882020   0.9757040
906.0000000 0.9729939   0.9859530   0.9859530   0.9859530   0.9920350   0.9900000   0.9900000   0.9604000   0.9966555   0.9849622   0.8881490   0.9746930
907.0000000 0.9729077   0.9860620   0.9860620   0.9860620   0.9918520   0.9900000   0.9900000   0.9604000   0.9966555   0.9849622   0.8880960   0.9736260
908.0000000 0.9728254   0.9861680   0.9861680   0.9861680   0.9917200   0.9900000   0.9900000   0.9604000   0.9966555   0.9849622   0.8880430   0.9725010
909.0000000 0.9727431   0.9862700   0.9862700   0.9862700   0.9916180   0.9900000   0.9900000   0.9604000   0.9966555   0.9849622   0.8879900   0.9713150
910.0000000 0.9726569   0.9863700   0.9863700   0.9863700   0.9915670   0.9900000   0.9900000   0.9604000   0.9966555   0.9849622   0.8879360   0.9700650
911.0000000 0.9725707   0.9864660   0.9864660   0.9864660   0.9915670   0.9900000   0.9900000   0.9604000   0.9966555   0.9849622   0.8878830   0.9687500
912.0000000 0.9724885   0.9865590   0.9865590   0.9865590   0.9916180   0.9900000   0.9900000   0.9604000   0.9966555   0.9849622   0.8878300   0.9673660
913.0000000 0.9724062   0.9866490   0.9866490   0.9866490   0.9917210   0.9900000   0.9900000   0.9604000   0.9966555   0.9849622   0.8877770   0.9659110
914.0000000 0.9723200   0.9867360   0.9867360   0.9867360   0.9918540   0.9900000   0.9900000   0.9604000   0.9966555   0.9849622   0.8877240   0.9643840
915.0000000 0.9722339   0.9868200   0.9868200   0.9868200   0.9920380   0.9900000   0.9900000   0.9604000   0.9966555   0.9849622   0.8876710   0.9627800
916.0000000 0.9721516   0.9869010   0.9869010   0.9869010   0.9922620   0.9900000   0.9900000   0.9604000   0.9966555   0.9849622   0.8876170   0.9610980
917.0000000 0.9720655   0.9869790   0.9869790   0.9869790   0.9925170   0.9900000   0.9900000   0.9604000   0.9966555   0.9849622   0.8875640   0.9593360
918.0000000 0.9719833   0.9870550   0.9870550   0.9870550   0.9927910   0.9900000   0.9900000   0.9604000   0.9966555   0.9849622   0.8875110   0.9574910
919.0000000 0.9718971   0.9871270   0.9871270   0.9871270   0.9930770   0.9900000   0.9900000   0.9604000   0.9966555   0.9849622   0.8874580   0.9555600
920.0000000 0.9718110   0.9871960   0.9871960   0.9871960   0.9933820   0.9900000   0.9900000   0.9604000   0.9966555   0.9849622   0.8874050   0.9535420
921.0000000 0.9717248   0.9872630   0.9872630   0.9872630   0.9936910   0.9900000   0.9900000   0.9604000   0.9966555   0.9849622   0.8873520   0.9514330
922.0000000 0.9716387   0.9873270   0.9873270   0.9873270   0.9939920   0.9900000   0.9900000   0.9604000   0.9966555   0.9849622   0.8872990   0.9492310
923.0000000 0.9715526   0.9873880   0.9873880   0.9873880   0.9942680   0.9900000   0.9900000   0.9604000   0.9966555   0.9849622   0.8872450   0.9469350
924.0000000 0.9714665   0.9874470   0.9874470   0.9874470   0.9945300   0.9900000   0.9900000   0.9604000   0.9966555   0.9849622   0.8871920   0.9445400
925.0000000 0.9713804   0.9875020   0.9875020   0.9875020   0.9947680   0.9900000   0.9900000   0.9604000   0.9966555   0.9849622   0.8871390   0.9420450
926.0000000 0.9712943   0.9875560   0.9875560   0.9875560   0.9949720   0.9900000   0.9900000   0.9604000   0.9966555   0.9849622   0.8870860   0.9394480
927.0000000 0.9712082   0.9876060   0.9876060   0.9876060   0.9951330   0.9900000   0.9900000   0.9604000   0.9966555   0.9849622   0.8870330   0.9367460
928.0000000 0.9711221   0.9876540   0.9876540   0.9876540   0.9952410   0.9900000   0.9900000   0.9604000   0.9966555   0.9849622   0.8869800   0.9339370
929.0000000 0.9710360   0.9877000   0.9877000   0.9877000   0.9953180   0.9900000   0.9900000   0.9604000   0.9966555   0.9849622   0.8869270   0.9310170
930.0000000 0.9709499   0.9877430   0.9877430   0.9877430   0.9953430   0.9900000   0.9900000   0.9604000   0.9966555   0.9849622   0.8868730   0.9279850
931.0000000 0.9708639   0.9877830   0.9877830   0.9877830   0.9953160   0.9900000   0.9900000   0.9604000   0.9966555   0.9849622   0.8868200   0.9248390
932.0000000 0.9707778   0.9878210   0.9878210   0.9878210   0.9952380   0.9900000   0.9900000   0.9604000   0.9966555   0.9849622   0.8867670   0.9215750
933.0000000 0.9706917   0.9878570   0.9878570   0.9878570   0.9951100   0.9900000   0.9900000   0.9604000   0.9966555   0.9849622   0.8867140   0.9181920
934.0000000 0.9706057   0.9878900   0.9878900   0.9878900   0.9949550   0.9900000   0.9900000   0.9604000   0.9966555   0.9849622   0.8866610   0.9146860
935.0000000 0.9705196   0.9879210   0.9879210   0.9879210   0.9947500   0.9900000   0.9900000   0.9604000   0.9966555   0.9849622   0.8866080   0.9110560
936.0000000 0.9704336   0.9879490   0.9879490   0.9879490   0.9945060   0.9900000   0.9900000   0.9604000   0.9966555   0.9849622   0.8865550   0.9072990
937.0000000 0.9703475   0.9879750   0.9879750   0.9879750   0.9942350   0.9900000   0.9900000   0.9604000   0.9966555   0.9849622   0.8865020   0.9034130
938.0000000 0.9702576   0.9879990   0.9879990   0.9879990   0.9939480   0.9900000   0.9900000   0.9604000   0.9966555   0.9849622   0.8864490   0.8993950
939.0000000 0.9701716   0.9880210   0.9880210   0.9880210   0.9936510   0.9900000   0.9900000   0.9604000   0.9966555   0.9849622   0.8863950   0.8952420
940.0000000 0.9700856   0.9880400   0.9880400   0.9880400   0.9933380   0.9900000   0.9900000   0.9604000   0.9966555   0.9849622   0.8863420   0.8909530
941.0000000 0.9699995   0.9880580   0.9880580   0.9880580   0.9930230   0.9900000   0.9900000   0.9604000   0.9966555   0.9849622   0.8862890   0.8865240
942.0000000 0.9699135   0.9880730   0.9880730   0.9880730   0.9927190   0.9900000   0.9900000   0.9604000   0.9966555   0.9849622   0.8862360   0.8819540
943.0000000 0.9698236   0.9880860   0.9880860   0.9880860   0.9924420   0.9900000   0.9900000   0.9604000   0.9966555   0.9849622   0.8861830   0.8772400
944.0000000 0.9697376   0.9880960   0.9880960   0.9880960   0.9921780   0.9900000   0.9900000   0.9604000   0.9966555   0.9849622   0.8861300   0.8723790
945.0000000 0.9696516   0.9881050   0.9881050   0.9881050   0.9919410   0.9900000   0.9900000   0.9604000   0.9966555   0.9849622   0.8860770   0.8673690
946.0000000 0.9695617   0.9881110   0.9881110   0.9881110   0.9917390   0.9900000   0.9900000   0.9604000   0.9966555   0.9849622   0.8860240   0.8622080
947.0000000 0.9694758   0.9881150   0.9881150   0.9881150   0.9915820   0.9900000   0.9900000   0.9604000   0.9966555   0.9849622   0.8859710   0.8568930
948.0000000 0.9693898   0.9881180   0.9881180   0.9881180   0.9914780   0.9900000   0.9900000   0.9604000   0.9966555   0.9849622   0.8859170   0.8514210
949.0000000 0.9692999   0.9881180   0.9881180   0.9881180   0.9914040   0.9900000   0.9900000   0.9604000   0.9966555   0.9849622   0.8858640   0.8457910
950.0000000 0.9692139   0.9881160   0.9881160   0.9881160   0.9913830   0.9900000   0.9900000   0.9604000   0.9966555   0.9849622   0.8858110   0.8400000
951.0000000 0.9691280   0.9880770   0.9880770   0.9880770   0.9914150   0.9900000   0.9900000   0.9604000   0.9966555   0.9849622   0.8857580   0.8338230
952.0000000 0.9690381   0.9880370   0.9880370   0.9880370   0.9915000   0.9900000   0.9900000   0.9604000   0.9966555   0.9849622   0.8857050   0.8274540
953.0000000 0.9689522   0.9879940   0.9879940   0.9879940   0.9916370   0.9900000   0.9900000   0.9604000   0.9966555   0.9849622   0.8856520   0.8209000
954.0000000 0.9688662   0.9879500   0.9879500   0.9879500   0.9918010   0.9900000   0.9900000   0.9604000   0.9966555   0.9849622   0.8855990   0.8141670
955.0000000 0.9687764   0.9879030   0.9879030   0.9879030   0.9920170   0.9900000   0.9900000   0.9604000   0.9966555   0.9849622   0.8855460   0.8072600
956.0000000 0.9686905   0.9878540   0.9878540   0.9878540   0.9922750   0.9900000   0.9900000   0.9604000   0.9966555   0.9849622   0.8854930   0.8001850
957.0000000 0.9686006   0.9878040   0.9878040   0.9878040   0.9925640   0.9900000   0.9900000   0.9604000   0.9966555   0.9849622   0.8854400   0.7929480
958.0000000 0.9685147   0.9877510   0.9877510   0.9877510   0.9928750   0.9900000   0.9900000   0.9604000   0.9966555   0.9849622   0.8853870   0.7855540
959.0000000 0.9684249   0.9876960   0.9876960   0.9876960   0.9931970   0.9900000   0.9900000   0.9604000   0.9966555   0.9849622   0.8853340   0.7780090
960.0000000 0.9683390   0.9876400   0.9876400   0.9876400   0.9935410   0.9900000   0.9900000   0.9604000   0.9966555   0.9849622   0.8852810   0.7703200
961.0000000 0.9682531   0.9875810   0.9875810   0.9875810   0.9938920   0.9900000   0.9900000   0.9604000   0.9966555   0.9849622   0.8852270   0.7624910
962.0000000 0.9681633   0.9875200   0.9875200   0.9875200   0.9942360   0.9900000   0.9900000   0.9604000   0.9966555   0.9849622   0.8851740   0.7545290
963.0000000 0.9680774   0.9874570   0.9874570   0.9874570   0.9945580   0.9900000   0.9900000   0.9604000   0.9966555   0.9849622   0.8851210   0.7464390
964.0000000 0.9679915   0.9873920   0.9873920   0.9873920   0.9948700   0.9900000   0.9900000   0.9604000   0.9966555   0.9849622   0.8850680   0.7382280
965.0000000 0.9679018   0.9873250   0.9873250   0.9873250   0.9951610   0.9900000   0.9900000   0.9604000   0.9966555   0.9849622   0.8850150   0.7299000
966.0000000 0.9678159   0.9872560   0.9872560   0.9872560   0.9954200   0.9900000   0.9900000   0.9604000   0.9966555   0.9849622   0.8849620   0.7214620
967.0000000 0.9677261   0.9871850   0.9871850   0.9871850   0.9956360   0.9900000   0.9900000   0.9604000   0.9966555   0.9849622   0.8849090   0.7129190
968.0000000 0.9676403   0.9871110   0.9871110   0.9871110   0.9957990   0.9900000   0.9900000   0.9604000   0.9966555   0.9849622   0.8848560   0.7042770
969.0000000 0.9675505   0.9870360   0.9870360   0.9870360   0.9959340   0.9900000   0.9900000   0.9604000   0.9966555   0.9849622   0.8848030   0.6955420
970.0000000 0.9674647   0.9869580   0.9869580   0.9869580   0.9960160   0.9900000   0.9900000   0.9604000   0.9966555   0.9849622   0.8847500   0.6867200
971.0000000 0.9673788   0.9868790   0.9868790   0.9868790   0.9960430   0.9900000   0.9900000   0.9604000   0.9966555   0.9849622   0.8846970   0.6778160
972.0000000 0.9672891   0.9867970   0.9867970   0.9867970   0.9960140   0.9900000   0.9900000   0.9604000   0.9966555   0.9849622   0.8846440   0.6688360
973.0000000 0.9672033   0.9867130   0.9867130   0.9867130   0.9959270   0.9900000   0.9900000   0.9604000   0.9966555   0.9849622   0.8845910   0.6597870
974.0000000 0.9671135   0.9866270   0.9866270   0.9866270   0.9958100   0.9900000   0.9900000   0.9604000   0.9966555   0.9849622   0.8845380   0.6506730
975.0000000 0.9670277   0.9865390   0.9865390   0.9865390   0.9956350   0.9900000   0.9900000   0.9604000   0.9966555   0.9849622   0.8844850   0.6415000
976.0000000 0.9669380   0.9864480   0.9864480   0.9864480   0.9954110   0.9900000   0.9900000   0.9604000   0.9966555   0.9849622   0.8844320   0.6322750
977.0000000 0.9668522   0.9863560   0.9863560   0.9863560   0.9951470   0.9900000   0.9900000   0.9604000   0.9966555   0.9849622   0.8843790   0.6230020
978.0000000 0.9667625   0.9862610   0.9862610   0.9862610   0.9948510   0.9900000   0.9900000   0.9604000   0.9966555   0.9849622   0.8843260   0.6136880
979.0000000 0.9666767   0.9861650   0.9861650   0.9861650   0.9945380   0.9900000   0.9900000   0.9604000   0.9966555   0.9849622   0.8842730   0.6043390
980.0000000 0.9665870   0.9860660   0.9860660   0.9860660   0.9941940   0.9900000   0.9900000   0.9604000   0.9966555   0.9849622   0.8842200   0.5949600
981.0000000 0.9665012   0.9859650   0.9859650   0.9859650   0.9938330   0.9900000   0.9900000   0.9604000   0.9966555   0.9849622   0.8841670   0.5855570
982.0000000 0.9664116   0.9858620   0.9858620   0.9858620   0.9934680   0.9900000   0.9900000   0.9604000   0.9966555   0.9849622   0.8841140   0.5761360
983.0000000 0.9663258   0.9857570   0.9857570   0.9857570   0.9931150   0.9900000   0.9900000   0.9604000   0.9966555   0.9849622   0.8840610   0.5667020
984.0000000 0.9662361   0.9856490   0.9856490   0.9856490   0.9927660   0.9900000   0.9900000   0.9604000   0.9966555   0.9849622   0.8840080   0.5572610
985.0000000 0.9661504   0.9855400   0.9855400   0.9855400   0.9924300   0.9900000   0.9900000   0.9604000   0.9966555   0.9849622   0.8839550   0.5478200
986.0000000 0.9660607   0.9854280   0.9854280   0.9854280   0.9921170   0.9900000   0.9900000   0.9604000   0.9966555   0.9849622   0.8839020   0.5383830
987.0000000 0.9659711   0.9853140   0.9853140   0.9853140   0.9918420   0.9900000   0.9900000   0.9604000   0.9966555   0.9849622   0.8838490   0.5289570
988.0000000 0.9658853   0.9851990   0.9851990   0.9851990   0.9916170   0.9900000   0.9900000   0.9604000   0.9966555   0.9849622   0.8837960   0.5195480
989.0000000 0.9657957   0.9850810   0.9850810   0.9850810   0.9914160   0.9900000   0.9900000   0.9604000   0.9966555   0.9849622   0.8837420   0.5101600
990.0000000 0.9657100   0.9849610   0.9849610   0.9849610   0.9912650   0.9900000   0.9900000   0.9604000   0.9966555   0.9849622   0.8836890   0.5008000
991.0000000 0.9656203   0.9848390   0.9848390   0.9848390   0.9911700   0.9900000   0.9900000   0.9604000   0.9966555   0.9849622   0.8836360   0.4914740
992.0000000 0.9655346   0.9847150   0.9847150   0.9847150   0.9911360   0.9900000   0.9900000   0.9604000   0.9966555   0.9849622   0.8835830   0.4821870
993.0000000 0.9654489   0.9845880   0.9845880   0.9845880   0.9911670   0.9900000   0.9900000   0.9604000   0.9966555   0.9849622   0.8835300   0.4729450
994.0000000 0.9653593   0.9844600   0.9844600   0.9844600   0.9912300   0.9900000   0.9900000   0.9604000   0.9966555   0.9849622   0.8834770   0.4637540
995.0000000 0.9652697   0.9843300   0.9843300   0.9843300   0.9913590   0.9900000   0.9900000   0.9604000   0.9966555   0.9849622   0.8834240   0.4546200
996.0000000 0.9651840   0.9841980   0.9841980   0.9841980   0.9915500   0.9900000   0.9900000   0.9604000   0.9966555   0.9849622   0.8833710   0.4455480
997.0000000 0.9650983   0.9840640   0.9840640   0.9840640   0.9917960   0.9900000   0.9900000   0.9604000   0.9966555   0.9849622   0.8833190   0.4365440
998.0000000 0.9650087   0.9839280   0.9839280   0.9839280   0.9920940   0.9900000   0.9900000   0.9604000   0.9966555   0.9849622   0.8832660   0.4276150
999.0000000 0.9649231   0.9837900   0.9837900   0.9837900   0.9924170   0.9900000   0.9900000   0.9604000   0.9966555   0.9849622   0.8832130   0.4187650
1000.000000 0.9648335   0.9836510   0.9836510   0.9836510   0.9927910   0.9900000   0.9900000   0.9604000   0.9966555   0.9849622   0.8831600   0.4100000
