# Efficiency data for the WFOS blue camera
# Provided by Jason Fucik, 07 Apr 2020
# Columns:
#    1 - Wavelength (nm)
#    2 - ADC
#    3 - Fold mirror (M4)
#    4 - 1st reflective collimator (CM1)
#    5 - 2nd reflective collimator (CM2)
#    6 - Dichroic
#    7 - Blue-arm fold mirror (BM1)
#    8 - VPH glass (VPHG)
#    9 - VPH DCG layer (VPHDCG)
#   10 - VPH glue (VPHGLU)
#   11 - Camera
#   12 - Detector
#Wavelength       ADC          M4         CM1         CM2    Dichroic         BM1        VPHG      VPHDCG      VPHGLU      Camera    Detector
#       (1)       (2)         (3)         (4)         (5)         (6)         (7)         (8)         (9)        (10)        (11)        (12)
310.0000000 0.9495938   0.9761260   0.9761260   0.9761260   1.0000000   0.9900000   0.9604000   0.9426018   0.9897271   0.8593070   0.6536690
311.0000000 0.9507294   0.9825960   0.9825960   0.9825960   1.0000000   0.9900000   0.9604000   0.9430705   0.9900839   0.8593070   0.6589620
312.0000000 0.9519470   0.9870200   0.9870200   0.9870200   1.0000000   0.9900000   0.9604000   0.9435388   0.9904395   0.8593070   0.6642350
313.0000000 0.9532314   0.9901170   0.9901170   0.9901170   1.0000000   0.9900000   0.9604000   0.9440066   0.9907942   0.8593070   0.6694840
314.0000000 0.9545750   0.9923340   0.9923340   0.9923340   1.0000000   0.9900000   0.9604000   0.9444739   0.9911478   0.8593070   0.6747090
315.0000000 0.9559741   0.9939520   0.9939520   0.9939520   1.0000000   0.9900000   0.9604000   0.9449408   0.9915004   0.8593070   0.6799070
316.0000000 0.9574213   0.9951540   0.9951540   0.9951540   1.0000000   0.9900000   0.9604000   0.9454072   0.9918520   0.8593070   0.6850770
317.0000000 0.9589011   0.9960630   0.9960630   0.9960630   1.0000000   0.9900000   0.9604000   0.9458731   0.9922025   0.8593070   0.6902160
318.0000000 0.9604058   0.9967600   0.9967600   0.9967600   1.0000000   0.9900000   0.9604000   0.9463386   0.9925521   0.8593070   0.6953220
319.0000000 0.9619357   0.9973020   0.9973020   0.9973020   1.0000000   0.9900000   0.9604000   0.9468037   0.9929007   0.8593070   0.7003950
320.0000000 0.9634713   0.9977280   0.9977280   0.9977280   1.0000000   0.9900000   0.9604000   0.9472682   0.9932482   0.8593070   0.7054310
321.0000000 0.9650087   0.9980700   0.9980700   0.9980700   1.0000000   0.9900000   0.9604000   0.9477323   0.9931325   0.8593070   0.7104280
322.0000000 0.9665441   0.9983450   0.9983450   0.9983450   1.0000000   0.9900000   0.9604000   0.9481960   0.9930166   0.8593070   0.7153860
323.0000000 0.9680579   0.9985700   0.9985700   0.9985700   1.0000000   0.9900000   0.9604000   0.9486592   0.9929006   0.8593070   0.7203020
324.0000000 0.9695500   0.9987550   0.9987550   0.9987550   1.0000000   0.9900000   0.9604000   0.9491220   0.9927846   0.8593070   0.7251740
325.0000000 0.9710125   0.9989080   0.9989080   0.9989080   1.0000000   0.9900000   0.9604000   0.9495843   0.9926684   0.8593070   0.7300000
326.0000000 0.9724297   0.9990370   0.9990370   0.9990370   1.0000000   0.9900000   0.9604000   0.9500462   0.9925521   0.8593070   0.7347770
327.0000000 0.9737936   0.9991110   0.9991110   0.9991110   1.0000000   0.9900000   0.9604000   0.9505076   0.9924357   0.8593070   0.7394940
328.0000000 0.9750999   0.9991700   0.9991700   0.9991700   1.0000000   0.9900000   0.9604000   0.9509685   0.9923192   0.8593070   0.7441400
329.0000000 0.9763409   0.9992160   0.9992160   0.9992160   1.0000000   0.9900000   0.9604000   0.9514291   0.9922025   0.8593060   0.7487030
330.0000000 0.9775004   0.9992520   0.9992520   0.9992520   1.0000000   0.9900000   0.9604000   0.9518891   0.9920858   0.8593060   0.7531700
331.0000000 0.9785783   0.9992790   0.9992790   0.9992790   1.0000000   0.9900000   0.9604000   0.9523488   0.9922025   0.8593060   0.7575300
332.0000000 0.9795704   0.9992990   0.9992990   0.9992990   1.0000000   0.9900000   0.9604000   0.9528079   0.9923192   0.8593060   0.7617720
333.0000000 0.9804845   0.9993100   0.9993100   0.9993100   1.0000000   0.9900000   0.9604000   0.9532667   0.9924357   0.8593060   0.7658830
334.0000000 0.9813242   0.9993140   0.9993140   0.9993140   1.0000000   0.9900000   0.9604000   0.9537250   0.9925521   0.8593060   0.7698510
335.0000000 0.9820935   0.9993110   0.9993110   0.9993110   1.0000000   0.9900000   0.9604000   0.9541828   0.9926684   0.8593060   0.7736640
336.0000000 0.9827922   0.9993000   0.9993000   0.9993000   1.0000000   0.9900000   0.9604000   0.9546403   0.9927846   0.8593060   0.7773120
337.0000000 0.9834280   0.9992800   0.9992800   0.9992800   1.0000000   0.9900000   0.9604000   0.9550973   0.9929006   0.8593060   0.7807810
338.0000000 0.9840048   0.9992500   0.9992500   0.9992500   1.0000000   0.9900000   0.9604000   0.9555538   0.9930166   0.8593060   0.7840600
339.0000000 0.9845266   0.9992100   0.9992100   0.9992100   1.0000000   0.9900000   0.9604000   0.9560099   0.9931325   0.8593060   0.7871370
340.0000000 0.9849932   0.9991550   0.9991550   0.9991550   1.0000000   0.9900000   0.9604000   0.9564656   0.9932482   0.8593060   0.7900000
341.0000000 0.9854995   0.9991430   0.9991430   0.9991430   1.0000000   0.9900000   0.9604000   0.9569208   0.9933639   0.8593060   0.7924450
342.0000000 0.9859467   0.9991250   0.9991250   0.9991250   1.0000000   0.9900000   0.9604000   0.9573756   0.9934794   0.8593060   0.7946570
343.0000000 0.9863346   0.9991010   0.9991010   0.9991010   1.0000000   0.9900000   0.9604000   0.9578300   0.9935948   0.8593060   0.7966850
344.0000000 0.9866711   0.9990700   0.9990700   0.9990700   1.0000000   0.9900000   0.9604000   0.9582840   0.9937101   0.8593060   0.7985810
345.0000000 0.9869603   0.9990300   0.9990300   0.9990300   1.0000000   0.9900000   0.9604000   0.9587375   0.9938253   0.8593060   0.8003950
346.0000000 0.9872058   0.9989800   0.9989800   0.9989800   1.0000000   0.9900000   0.9604000   0.9591906   0.9939404   0.8593060   0.8021770
347.0000000 0.9874079   0.9989180   0.9989180   0.9989180   1.0000000   0.9900000   0.9604000   0.9596432   0.9940554   0.8593060   0.8039780
348.0000000 0.9875783   0.9988390   0.9988390   0.9988390   1.0000000   0.9900000   0.9604000   0.9600955   0.9941703   0.8593060   0.8058480
349.0000000 0.9877091   0.9987410   0.9987410   0.9987410   1.0000000   0.9900000   0.9604000   0.9605473   0.9942850   0.8593060   0.8078390
350.0000000 0.9878161   0.9986150   0.9986150   0.9986150   1.0000000   0.9900000   0.9604000   0.9609987   0.9943997   0.8593060   0.8100000
351.0000000 0.9879588   0.9981320   0.9981320   0.9981320   1.0000000   0.9900000   0.9604000   0.9614496   0.9945142   0.8593060   0.8123520
352.0000000 0.9880697   0.9973590   0.9973590   0.9973590   1.0000000   0.9900000   0.9604000   0.9619002   0.9946287   0.8593060   0.8148100
353.0000000 0.9881451   0.9960390   0.9960390   0.9960390   1.0000000   0.9900000   0.9604000   0.9623503   0.9947430   0.8593060   0.8173880
354.0000000 0.9881926   0.9936240   0.9936240   0.9936240   0.9945050   0.9900000   0.9604000   0.9628000   0.9948573   0.8593050   0.8201010
355.0000000 0.9882085   0.9889860   0.9889860   0.9889860   1.0030900   0.9900000   0.9604000   0.9632493   0.9949714   0.8593050   0.8229620
356.0000000 0.9881966   0.9810840   0.9810840   0.9810840   1.0027900   0.9900000   0.9604000   0.9636981   0.9950854   0.8593050   0.8259860
357.0000000 0.9881570   0.9756060   0.9756060   0.9756060   0.9977600   0.9900000   0.9604000   0.9641466   0.9951993   0.8593050   0.8291880
358.0000000 0.9880975   0.9810080   0.9810080   0.9810080   0.9921410   0.9900000   0.9604000   0.9645946   0.9953131   0.8593050   0.8325810
359.0000000 0.9880103   0.9882290   0.9882290   0.9882290   0.9946160   0.9900000   0.9604000   0.9650422   0.9954268   0.8593050   0.8361800
360.0000000 0.9879072   0.9925780   0.9925780   0.9925780   0.9965080   0.9900000   0.9604000   0.9654894   0.9955404   0.8593050   0.8400000
361.0000000 0.9878161   0.9950150   0.9950150   0.9950150   0.9978750   0.9900000   0.9604000   0.9659362   0.9956539   0.8593050   0.8444570
362.0000000 0.9877011   0.9963820   0.9963820   0.9963820   0.9987730   0.9900000   0.9604000   0.9663825   0.9957673   0.8593050   0.8492570
363.0000000 0.9875624   0.9972030   0.9972030   0.9972030   0.9992610   0.9900000   0.9604000   0.9668285   0.9958806   0.8593050   0.8543610
364.0000000 0.9874039   0.9977280   0.9977280   0.9977280   0.9995640   0.9900000   0.9604000   0.9672740   0.9959937   0.8593050   0.8597310
365.0000000 0.9872257   0.9980790   0.9980790   0.9980790   0.9994570   0.9900000   0.9604000   0.9677192   0.9961068   0.8593050   0.8653270
366.0000000 0.9870315   0.9983200   0.9983200   0.9983200   0.9990550   0.9900000   0.9604000   0.9681639   0.9962198   0.8593050   0.8711100
367.0000000 0.9868216   0.9984890   0.9984890   0.9984890   0.9984740   0.9900000   0.9604000   0.9686082   0.9963326   0.8593050   0.8770420
368.0000000 0.9865999   0.9986080   0.9986080   0.9986080   0.9978290   0.9900000   0.9604000   0.9690521   0.9964454   0.8593050   0.8830840
369.0000000 0.9863663   0.9986900   0.9986900   0.9986900   0.9972630   0.9900000   0.9604000   0.9694956   0.9965581   0.8593050   0.8891960
370.0000000 0.9861248   0.9987430   0.9987430   0.9987430   0.9966330   0.9900000   0.9604000   0.9699387   0.9966706   0.8593050   0.8953410
371.0000000 0.9858952   0.9987800   0.9987800   0.9987800   0.9960110   0.9900000   0.9604000   0.9703814   0.9965581   0.8593050   0.9014790
372.0000000 0.9856499   0.9987980   0.9987980   0.9987980   0.9954690   0.9900000   0.9604000   0.9708237   0.9964454   0.8593050   0.9075710
373.0000000 0.9853967   0.9987980   0.9987980   0.9987980   0.9950770   0.9900000   0.9604000   0.9712656   0.9963326   0.8593050   0.9135790
374.0000000 0.9851316   0.9987830   0.9987830   0.9987830   0.9948530   0.9900000   0.9604000   0.9717071   0.9962198   0.8593050   0.9194630
375.0000000 0.9848627   0.9987520   0.9987520   0.9987520   0.9947790   0.9900000   0.9604000   0.9721481   0.9961068   0.8593050   0.9251850
376.0000000 0.9845820   0.9987030   0.9987030   0.9987030   0.9948570   0.9900000   0.9604000   0.9725888   0.9959937   0.8593050   0.9307050
377.0000000 0.9842934   0.9986370   0.9986370   0.9986370   0.9950870   0.9900000   0.9604000   0.9730291   0.9958806   0.8593050   0.9359860
378.0000000 0.9840048   0.9985490   0.9985490   0.9985490   0.9954690   0.9900000   0.9604000   0.9734690   0.9957673   0.8593050   0.9409880
379.0000000 0.9837085   0.9984370   0.9984370   0.9984370   0.9963010   0.9900000   0.9604000   0.9739085   0.9956539   0.8593050   0.9456720
380.0000000 0.9834122   0.9982960   0.9982960   0.9982960   0.9972850   0.9900000   0.9604000   0.9743476   0.9955404   0.8593050   0.9500000
381.0000000 0.9831239   0.9981950   0.9981950   0.9981950   0.9982090   0.9900000   0.9604000   0.9747863   0.9954268   0.8593050   0.9533920
382.0000000 0.9828317   0.9980710   0.9980710   0.9980710   0.9988620   0.9900000   0.9604000   0.9752246   0.9953131   0.8593050   0.9565030
383.0000000 0.9825356   0.9979220   0.9979220   0.9979220   0.9990300   0.9900000   0.9604000   0.9756625   0.9951993   0.8593050   0.9593470
384.0000000 0.9822356   0.9977430   0.9977430   0.9977430   0.9980500   0.9900000   0.9604000   0.9761000   0.9950854   0.8593050   0.9619380
385.0000000 0.9819317   0.9975260   0.9975260   0.9975260   0.9965850   0.9900000   0.9604000   0.9765371   0.9949714   0.8593050   0.9642880
386.0000000 0.9816279   0.9972660   0.9972660   0.9972660   0.9949590   0.9900000   0.9604000   0.9769739   0.9948573   0.8593050   0.9664120
387.0000000 0.9813242   0.9969510   0.9969510   0.9969510   0.9934950   0.9900000   0.9604000   0.9774102   0.9947430   0.8593050   0.9683230
388.0000000 0.9810167   0.9965700   0.9965700   0.9965700   0.9925140   0.9900000   0.9604000   0.9778462   0.9946287   0.8593040   0.9700360
389.0000000 0.9807091   0.9961060   0.9961060   0.9961060   0.9925800   0.9900000   0.9604000   0.9782817   0.9945142   0.8593040   0.9715620
390.0000000 0.9804017   0.9955390   0.9955390   0.9955390   0.9931310   0.9900000   0.9604000   0.9787169   0.9943997   0.8593040   0.9729170
391.0000000 0.9800943   0.9947180   0.9947180   0.9947180   0.9940030   0.9900000   0.9604000   0.9791517   0.9943997   0.8593040   0.9741130
392.0000000 0.9797831   0.9936830   0.9936830   0.9936830   0.9950380   0.9900000   0.9604000   0.9795861   0.9943997   0.8593040   0.9751640
393.0000000 0.9794719   0.9923790   0.9923790   0.9923790   0.9960730   0.9900000   0.9604000   0.9800201   0.9943997   0.8593040   0.9760850
394.0000000 0.9791648   0.9907480   0.9907480   0.9907480   0.9969160   0.9900000   0.9604000   0.9804538   0.9943997   0.8593040   0.9768880
395.0000000 0.9788538   0.9887430   0.9887430   0.9887430   0.9977600   0.9900000   0.9604000   0.9808870   0.9943997   0.8593040   0.9775870
396.0000000 0.9785468   0.9863640   0.9863640   0.9863640   0.9985400   0.9900000   0.9604000   0.9813199   0.9943997   0.8593040   0.9781960
397.0000000 0.9782399   0.9837090   0.9837090   0.9837090   0.9991910   0.9900000   0.9604000   0.9817524   0.9943997   0.8593040   0.9787280
398.0000000 0.9779369   0.9810320   0.9810320   0.9810320   0.9996500   0.9900000   0.9604000   0.9821845   0.9943997   0.8593040   0.9791970
399.0000000 0.9776341   0.9787400   0.9787400   0.9787400   0.9997910   0.9900000   0.9604000   0.9826162   0.9943997   0.8593040   0.9796160
400.0000000 0.9773392   0.9772730   0.9772730   0.9772730   0.9997390   0.9900000   0.9604000   0.9830476   0.9943997   0.8593040   0.9800000
401.0000000 0.9770404   0.9765370   0.9765370   0.9765370   0.9995730   0.9900000   0.9604000   0.9831510   1.0000000   0.8593040   0.9810790
402.0000000 0.9767456   0.9767720   0.9767720   0.9767720   0.9993710   0.9900000   0.9604000   0.9832545   1.0000000   0.8593040   0.9820990
403.0000000 0.9764548   0.9777220   0.9777220   0.9777220   0.9992110   0.9900000   0.9604000   0.9833579   1.0000000   0.8593040   0.9830630
404.0000000 0.9761680   0.9790590   0.9790590   0.9790590   0.9992540   0.9900000   0.9604000   0.9834613   1.0000000   0.8593040   0.9839700
405.0000000 0.9758852   0.9805080   0.9805080   0.9805080   0.9993390   0.9900000   0.9604000   0.9835647   1.0000000   0.8593040   0.9848220
406.0000000 0.9756064   0.9818930   0.9818930   0.9818930   0.9994470   0.9900000   0.9604000   0.9836680   1.0000000   0.8593040   0.9856200
407.0000000 0.9753315   0.9831240   0.9831240   0.9831240   0.9995590   0.9900000   0.9604000   0.9837714   1.0000000   0.8593040   0.9863640
408.0000000 0.9750646   0.9841660   0.9841660   0.9841660   0.9996550   0.9900000   0.9604000   0.9838747   1.0000000   0.8593040   0.9870550
409.0000000 0.9748056   0.9850170   0.9850170   0.9850170   0.9998520   0.9900000   0.9604000   0.9839780   1.0000000   0.8593040   0.9876940
410.0000000 0.9745505   0.9856860   0.9856860   0.9856860   1.0000300   0.9900000   0.9604000   0.9840813   1.0000000   0.8593040   0.9882820
411.0000000 0.9742956   0.9861900   0.9861900   0.9861900   1.0001300   0.9900000   0.9604000   0.9841845   1.0000000   0.8593040   0.9888210
412.0000000 0.9740484   0.9865430   0.9865430   0.9865430   1.0000600   0.9900000   0.9604000   0.9842877   1.0000000   0.8593040   0.9893100
413.0000000 0.9738053   0.9867590   0.9867590   0.9867590   0.9997690   0.9900000   0.9604000   0.9843910   1.0000000   0.8593040   0.9897500
414.0000000 0.9735701   0.9868490   0.9868490   0.9868490   0.9989150   0.9900000   0.9604000   0.9844941   1.0000000   0.8593040   0.9901430
415.0000000 0.9733427   0.9868220   0.9868220   0.9868220   0.9978310   0.9900000   0.9604000   0.9845973   1.0000000   0.8593040   0.9904900
416.0000000 0.9731193   0.9866830   0.9866830   0.9866830   0.9967070   0.9900000   0.9604000   0.9847004   1.0000000   0.8593040   0.9907900
417.0000000 0.9729038   0.9864360   0.9864360   0.9864360   0.9957320   0.9900000   0.9604000   0.9848036   1.0000000   0.8593040   0.9910460
418.0000000 0.9726922   0.9860850   0.9860850   0.9860850   0.9950960   0.9900000   0.9604000   0.9849067   1.0000000   0.8593040   0.9912580
419.0000000 0.9724885   0.9856300   0.9856300   0.9856300   0.9951490   0.9900000   0.9604000   0.9850097   1.0000000   0.8593040   0.9914270
420.0000000 0.9722926   0.9850740   0.9850740   0.9850740   0.9955410   0.9900000   0.9604000   0.9851128   1.0000000   0.8593040   0.9915530
421.0000000 0.9720929   0.9844200   0.9844200   0.9844200   0.9961450   0.9900000   0.9604000   0.9852158   1.0000000   0.8593040   0.9916380
422.0000000 0.9718971   0.9836740   0.9836740   0.9836740   0.9968340   0.9900000   0.9604000   0.9853188   1.0000000   0.8593040   0.9916820
423.0000000 0.9717131   0.9828450   0.9828450   0.9828450   0.9974820   0.9900000   0.9604000   0.9854218   1.0000000   0.8593040   0.9916870
424.0000000 0.9715291   0.9819470   0.9819470   0.9819470   0.9979440   0.9900000   0.9604000   0.9855248   1.0000000   0.8593040   0.9916530
425.0000000 0.9713530   0.9810030   0.9810030   0.9810030   0.9983650   0.9900000   0.9604000   0.9856278   1.0000000   0.8593040   0.9915810
426.0000000 0.9711847   0.9800400   0.9800400   0.9800400   0.9987070   0.9900000   0.9604000   0.9857307   1.0000000   0.8593040   0.9914720
427.0000000 0.9710204   0.9790980   0.9790980   0.9790980   0.9989330   0.9900000   0.9604000   0.9858336   1.0000000   0.8593040   0.9913270
428.0000000 0.9708600   0.9782190   0.9782190   0.9782190   0.9990050   0.9900000   0.9604000   0.9859365   1.0000000   0.8593040   0.9911460
429.0000000 0.9707035   0.9774510   0.9774510   0.9774510   0.9987460   0.9900000   0.9604000   0.9860393   1.0000000   0.8593040   0.9909310
430.0000000 0.9705509   0.9768400   0.9768400   0.9768400   0.9983320   0.9900000   0.9604000   0.9861422   1.0000000   0.8593040   0.9906820
431.0000000 0.9703945   0.9764240   0.9764240   0.9764240   0.9978820   0.9900000   0.9604000   0.9862450   1.0000000   0.8593040   0.9904010
432.0000000 0.9702381   0.9762260   0.9762260   0.9762260   0.9975100   0.9900000   0.9604000   0.9863478   1.0000000   0.8593040   0.9900880
433.0000000 0.9700895   0.9762520   0.9762520   0.9762520   0.9973340   0.9900000   0.9604000   0.9864506   1.0000000   0.8593040   0.9897440
434.0000000 0.9699448   0.9764920   0.9764920   0.9764920   0.9976320   0.9900000   0.9604000   0.9865533   1.0000000   0.8593040   0.9893700
435.0000000 0.9698041   0.9769160   0.9769160   0.9769160   0.9981250   0.9900000   0.9604000   0.9866561   1.0000000   0.8593030   0.9889660
436.0000000 0.9696712   0.9774880   0.9774880   0.9774880   0.9987080   0.9900000   0.9604000   0.9867588   1.0000000   0.8593030   0.9885340
437.0000000 0.9695422   0.9781650   0.9781650   0.9781650   0.9992760   0.9900000   0.9604000   0.9868615   1.0000000   0.8593030   0.9880750
438.0000000 0.9694210   0.9789050   0.9789050   0.9789050   0.9997250   0.9900000   0.9604000   0.9869641   1.0000000   0.8593030   0.9875890
439.0000000 0.9692999   0.9796720   0.9796720   0.9796720   1.0001700   0.9900000   0.9604000   0.9870668   1.0000000   0.8593030   0.9870780
440.0000000 0.9691905   0.9804330   0.9804330   0.9804330   1.0004900   0.9900000   0.9604000   0.9871694   1.0000000   0.8593030   0.9865410
441.0000000 0.9690772   0.9811670   0.9811670   0.9811670   1.0005800   0.9900000   0.9604000   0.9872720   1.0000000   0.8593030   0.9859810
442.0000000 0.9689678   0.9818540   0.9818540   0.9818540   1.0003300   0.9900000   0.9604000   0.9873746   1.0000000   0.8593030   0.9853970
443.0000000 0.9688662   0.9824850   0.9824850   0.9824850   0.9996200   0.9900000   0.9604000   0.9874772   1.0000000   0.8593030   0.9847910
444.0000000 0.9687686   0.9830520   0.9830520   0.9830520   0.9977570   0.9900000   0.9604000   0.9875797   1.0000000   0.8593030   0.9841640
445.0000000 0.9686788   0.9835510   0.9835510   0.9835510   0.9954410   0.9900000   0.9604000   0.9876822   1.0000000   0.8593030   0.9835160
446.0000000 0.9685928   0.9839820   0.9839820   0.9839820   0.9930990   0.9900000   0.9604000   0.9877847   1.0000000   0.8593030   0.9828490
447.0000000 0.9685147   0.9843440   0.9843440   0.9843440   0.9911610   0.9900000   0.9604000   0.9878872   1.0000000   0.8593030   0.9821630
448.0000000 0.9684444   0.9846380   0.9846380   0.9846380   0.9900560   0.9900000   0.9604000   0.9879897   1.0000000   0.8593030   0.9814580
449.0000000 0.9683781   0.9848670   0.9848670   0.9848670   0.9907410   0.9900000   0.9604000   0.9880921   1.0000000   0.8593030   0.9807370
450.0000000 0.9683195   0.9850320   0.9850320   0.9850320   0.9922590   0.9900000   0.9604000   0.9881945   1.0000000   0.8593030   0.9800000
451.0000000 0.9682609   0.9850610   0.9850610   0.9850610   0.9942130   0.9900000   0.9604000   0.9882969   1.0000000   0.8593030   0.9792860
452.0000000 0.9682063   0.9850360   0.9850360   0.9850360   0.9962040   0.9900000   0.9604000   0.9883993   1.0000000   0.8593030   0.9785320
453.0000000 0.9681594   0.9849580   0.9849580   0.9849580   0.9978350   0.9900000   0.9604000   0.9885016   1.0000000   0.8593030   0.9777410
454.0000000 0.9681204   0.9848260   0.9848260   0.9848260   0.9987210   0.9900000   0.9604000   0.9886040   1.0000000   0.8593030   0.9769130
455.0000000 0.9680852   0.9846430   0.9846430   0.9846430   0.9992480   0.9900000   0.9604000   0.9887063   1.0000000   0.8593030   0.9760500
456.0000000 0.9680540   0.9844080   0.9844080   0.9844080   0.9993610   0.9900000   0.9604000   0.9888086   1.0000000   0.8593030   0.9751550
457.0000000 0.9680306   0.9841230   0.9841230   0.9841230   0.9990040   0.9900000   0.9604000   0.9889108   1.0000000   0.8593030   0.9742280
458.0000000 0.9680072   0.9837890   0.9837890   0.9837890   0.9981230   0.9900000   0.9604000   0.9890131   1.0000000   0.8593030   0.9732720
459.0000000 0.9679915   0.9834070   0.9834070   0.9834070   0.9959720   0.9900000   0.9604000   0.9891153   1.0000000   0.8593030   0.9722890
460.0000000 0.9679759   0.9829810   0.9829810   0.9829810   0.9932970   0.9900000   0.9604000   0.9892175   1.0000000   0.8593030   0.9712800
461.0000000 0.9679564   0.9825120   0.9825120   0.9825120   0.9906340   0.9900000   0.9604000   0.9893197   1.0000000   0.8595640   0.9702470
462.0000000 0.9679408   0.9820060   0.9820060   0.9820060   0.9885200   0.9900000   0.9604000   0.9894218   1.0000000   0.8598240   0.9691920
463.0000000 0.9679291   0.9814680   0.9814680   0.9814680   0.9874910   0.9900000   0.9604000   0.9895240   1.0000000   0.8600850   0.9681160
464.0000000 0.9679174   0.9809040   0.9809040   0.9809040   0.9888420   0.9900000   0.9604000   0.9896261   1.0000000   0.8603460   0.9670210
465.0000000 0.9679135   0.9803240   0.9803240   0.9803240   0.9912780   0.9900000   0.9604000   0.9897282   1.0000000   0.8606070   0.9659100
466.0000000 0.9679135   0.9797380   0.9797380   0.9797380   0.9942360   0.9900000   0.9604000   0.9898303   1.0000000   0.8608680   0.9647830
467.0000000 0.9679135   0.9791570   0.9791570   0.9791570   0.9971530   0.9900000   0.9604000   0.9899323   1.0000000   0.8611290   0.9636430
468.0000000 0.9679213   0.9785960   0.9785960   0.9785960   0.9994670   0.9900000   0.9604000   0.9900344   1.0000000   0.8613900   0.9624920
469.0000000 0.9679291   0.9780680   0.9780680   0.9780680   1.0001000   0.9900000   0.9604000   0.9901364   1.0000000   0.8616520   0.9613300
470.0000000 0.9679408   0.9775890   0.9775890   0.9775890   1.0001400   0.9900000   0.9604000   0.9902384   1.0000000   0.8619130   0.9601600
471.0000000 0.9679486   0.9771720   0.9771720   0.9771720   0.9997940   0.9900000   0.9604000   0.9903403   1.0000000   0.8621740   0.9589840
472.0000000 0.9679642   0.9768330   0.9768330   0.9768330   0.9992950   0.9900000   0.9604000   0.9904423   1.0000000   0.8624360   0.9578030
473.0000000 0.9679798   0.9765800   0.9765800   0.9765800   0.9988670   0.9900000   0.9604000   0.9905442   1.0000000   0.8626980   0.9566190
474.0000000 0.9680032   0.9764210   0.9764210   0.9764210   0.9989710   0.9900000   0.9604000   0.9906461   1.0000000   0.8629590   0.9554340
475.0000000 0.9680228   0.9763620   0.9763620   0.9763620   0.9991470   0.9900000   0.9604000   0.9907480   1.0000000   0.8632210   0.9542500
476.0000000 0.9680501   0.9764010   0.9764010   0.9764010   0.9993570   0.9900000   0.9604000   0.9908499   1.0000000   0.8634830   0.9530680
477.0000000 0.9680813   0.9765340   0.9765340   0.9765340   0.9995680   0.9900000   0.9604000   0.9909517   1.0000000   0.8637440   0.9518910
478.0000000 0.9681126   0.9767550   0.9767550   0.9767550   0.9997420   0.9900000   0.9604000   0.9910535   1.0000000   0.8640060   0.9507190
479.0000000 0.9681477   0.9770520   0.9770520   0.9770520   0.9998300   0.9900000   0.9604000   0.9911553   1.0000000   0.8642680   0.9495550
480.0000000 0.9681867   0.9774130   0.9774130   0.9774130   0.9998810   0.9900000   0.9604000   0.9912571   1.0000000   0.8645300   0.9484000
481.0000000 0.9682219   0.9778260   0.9778260   0.9778260   0.9999020   0.9900000   0.9604000   0.9913589   1.0000000   0.8647930   0.9472570
482.0000000 0.9682609   0.9782760   0.9782760   0.9782760   0.9998980   0.9900000   0.9604000   0.9914606   1.0000000   0.8650550   0.9461260
483.0000000 0.9683039   0.9787510   0.9787510   0.9787510   0.9998730   0.9900000   0.9604000   0.9915623   1.0000000   0.8653170   0.9450100
484.0000000 0.9683507   0.9792380   0.9792380   0.9792380   0.9998230   0.9900000   0.9604000   0.9916640   1.0000000   0.8655800   0.9439110
485.0000000 0.9683976   0.9797270   0.9797270   0.9797270   0.9997530   0.9900000   0.9604000   0.9917657   1.0000000   0.8658420   0.9428300
486.0000000 0.9684483   0.9802090   0.9802090   0.9802090   0.9996790   0.9900000   0.9604000   0.9918674   1.0000000   0.8661050   0.9417690
487.0000000 0.9685030   0.9806760   0.9806760   0.9806760   0.9996160   0.9900000   0.9604000   0.9919690   1.0000000   0.8663670   0.9407300
488.0000000 0.9685577   0.9811220   0.9811220   0.9811220   0.9995810   0.9900000   0.9604000   0.9920706   1.0000000   0.8666300   0.9397140
489.0000000 0.9686163   0.9815420   0.9815420   0.9815420   0.9996080   0.9900000   0.9604000   0.9921722   1.0000000   0.8668930   0.9387230
490.0000000 0.9686748   0.9819330   0.9819330   0.9819330   0.9996630   0.9900000   0.9604000   0.9922738   1.0000000   0.8671550   0.9377600
491.0000000 0.9687295   0.9822920   0.9822920   0.9822920   0.9997330   0.9900000   0.9604000   0.9923754   1.0000000   0.8674180   0.9368250
492.0000000 0.9687842   0.9826180   0.9826180   0.9826180   0.9998050   0.9900000   0.9604000   0.9924769   1.0000000   0.8676810   0.9359210
493.0000000 0.9688428   0.9829090   0.9829090   0.9829090   0.9998670   0.9900000   0.9604000   0.9925784   1.0000000   0.8679440   0.9350500
494.0000000 0.9689053   0.9831650   0.9831650   0.9831650   0.9999000   0.9900000   0.9604000   0.9926799   1.0000000   0.8682070   0.9342120
495.0000000 0.9689678   0.9833860   0.9833860   0.9833860   0.9999220   0.9900000   0.9604000   0.9927814   1.0000000   0.8684710   0.9334100
496.0000000 0.9690342   0.9835710   0.9835710   0.9835710   0.9999350   0.9900000   0.9604000   0.9928828   1.0000000   0.8687340   0.9326460
497.0000000 0.9691045   0.9837210   0.9837210   0.9837210   0.9999400   0.9900000   0.9604000   0.9929842   1.0000000   0.8689970   0.9319210
498.0000000 0.9691827   0.9838360   0.9838360   0.9838360   0.9999380   0.9900000   0.9604000   0.9930856   1.0000000   0.8692610   0.9312370
499.0000000 0.9692608   0.9839170   0.9839170   0.9839170   0.9999490   0.9900000   0.9604000   0.9931870   1.0000000   0.8695240   0.9305960
500.0000000 0.9693468   0.9839640   0.9839640   0.9839640   0.9999520   0.9900000   0.9604000   0.9932884   1.0000000   0.8697880   0.9300000
501.0000000 0.9694367   0.9839180   0.9839180   0.9839180   0.9999430   0.9900000   0.9604000   0.9933222   1.0000000   0.8697880   0.9297960
502.0000000 0.9695305   0.9838420   0.9838420   0.9838420   0.9999140   0.9900000   0.9604000   0.9933560   1.0000000   0.8697880   0.9296370
503.0000000 0.9696321   0.9837350   0.9837350   0.9837350   0.9998580   0.9900000   0.9604000   0.9933897   1.0000000   0.8697880   0.9295210
504.0000000 0.9697376   0.9835990   0.9835990   0.9835990   0.9997390   0.9900000   0.9604000   0.9934235   1.0000000   0.8697880   0.9294460
505.0000000 0.9698432   0.9834330   0.9834330   0.9834330   0.9995930   0.9900000   0.9604000   0.9934573   1.0000000   0.8697880   0.9294100
506.0000000 0.9699526   0.9832380   0.9832380   0.9832380   0.9994450   0.9900000   0.9604000   0.9934911   1.0000000   0.8697880   0.9294120
507.0000000 0.9700660   0.9830150   0.9830150   0.9830150   0.9993190   0.9900000   0.9604000   0.9935248   1.0000000   0.8697880   0.9294500
508.0000000 0.9701794   0.9827650   0.9827650   0.9827650   0.9992400   0.9900000   0.9604000   0.9935586   1.0000000   0.8697870   0.9295210
509.0000000 0.9702967   0.9824880   0.9824880   0.9824880   0.9992610   0.9900000   0.9604000   0.9935924   1.0000000   0.8697870   0.9296250
510.0000000 0.9704101   0.9821870   0.9821870   0.9821870   0.9993270   0.9900000   0.9604000   0.9936261   1.0000000   0.8697870   0.9297600
511.0000000 0.9705196   0.9818620   0.9818620   0.9818620   0.9994180   0.9900000   0.9604000   0.9936599   1.0000000   0.8697870   0.9299230
512.0000000 0.9706331   0.9815160   0.9815160   0.9815160   0.9995120   0.9900000   0.9604000   0.9936937   1.0000000   0.8697870   0.9301140
513.0000000 0.9707426   0.9811500   0.9811500   0.9811500   0.9995870   0.9900000   0.9604000   0.9937274   1.0000000   0.8697870   0.9303300
514.0000000 0.9708560   0.9807690   0.9807690   0.9807690   0.9996460   0.9900000   0.9604000   0.9937612   1.0000000   0.8697870   0.9305690
515.0000000 0.9709695   0.9803750   0.9803750   0.9803750   0.9996860   0.9900000   0.9604000   0.9937949   1.0000000   0.8697870   0.9308300
516.0000000 0.9710830   0.9799720   0.9799720   0.9799720   0.9996920   0.9900000   0.9604000   0.9938287   1.0000000   0.8697870   0.9311110
517.0000000 0.9712004   0.9795640   0.9795640   0.9795640   0.9996480   0.9900000   0.9604000   0.9938624   1.0000000   0.8697870   0.9314100
518.0000000 0.9713139   0.9791560   0.9791560   0.9791560   0.9995390   0.9900000   0.9604000   0.9938962   1.0000000   0.8697870   0.9317260
519.0000000 0.9714313   0.9787540   0.9787540   0.9787540   0.9993280   0.9900000   0.9604000   0.9939299   1.0000000   0.8697870   0.9320570
520.0000000 0.9715487   0.9783630   0.9783630   0.9783630   0.9990530   0.9900000   0.9604000   0.9939636   1.0000000   0.8697870   0.9324000
521.0000000 0.9716661   0.9779890   0.9779890   0.9779890   0.9987420   0.9900000   0.9604000   0.9939974   1.0000000   0.8697870   0.9327550
522.0000000 0.9717836   0.9776380   0.9776380   0.9776380   0.9984270   0.9900000   0.9604000   0.9940311   1.0000000   0.8697870   0.9331190
523.0000000 0.9719010   0.9773170   0.9773170   0.9773170   0.9981370   0.9900000   0.9604000   0.9940648   1.0000000   0.8697870   0.9334900
524.0000000 0.9720224   0.9770300   0.9770300   0.9770300   0.9978780   0.9900000   0.9604000   0.9940986   1.0000000   0.8697870   0.9338680
525.0000000 0.9721399   0.9767840   0.9767840   0.9767840   0.9976440   0.9900000   0.9604000   0.9941323   1.0000000   0.8697870   0.9342500
526.0000000 0.9722613   0.9765830   0.9765830   0.9765830   0.9974520   0.9900000   0.9604000   0.9941660   1.0000000   0.8697870   0.9346340
527.0000000 0.9723827   0.9764310   0.9764310   0.9764310   0.9973200   0.9900000   0.9604000   0.9941998   1.0000000   0.8697870   0.9350190
528.0000000 0.9725002   0.9763300   0.9763300   0.9763300   0.9972640   0.9900000   0.9604000   0.9942335   1.0000000   0.8697870   0.9354030
529.0000000 0.9726217   0.9762810   0.9762810   0.9762810   0.9974000   0.9900000   0.9604000   0.9942672   1.0000000   0.8697870   0.9357840
530.0000000 0.9727431   0.9762870   0.9762870   0.9762870   0.9976110   0.9900000   0.9604000   0.9943009   1.0000000   0.8697870   0.9361600
531.0000000 0.9728646   0.9763440   0.9763440   0.9763440   0.9978260   0.9900000   0.9604000   0.9943346   1.0000000   0.8697870   0.9365300
532.0000000 0.9729821   0.9764520   0.9764520   0.9764520   0.9979720   0.9900000   0.9604000   0.9943683   1.0000000   0.8697870   0.9368910
533.0000000 0.9731036   0.9766060   0.9766060   0.9766060   0.9979760   0.9900000   0.9604000   0.9944021   1.0000000   0.8697870   0.9372430
534.0000000 0.9732251   0.9768040   0.9768040   0.9768040   0.9983080   0.9900000   0.9604000   0.9944358   1.0000000   0.8697870   0.9375830
535.0000000 0.9733466   0.9770400   0.9770400   0.9770400   0.9984970   0.9900000   0.9604000   0.9944695   1.0000000   0.8697870   0.9379100
536.0000000 0.9734681   0.9773090   0.9773090   0.9773090   0.9982960   0.9900000   0.9604000   0.9945032   1.0000000   0.8697870   0.9382210
537.0000000 0.9735897   0.9776060   0.9776060   0.9776060   0.9974570   0.9900000   0.9604000   0.9945369   1.0000000   0.8697870   0.9385160
538.0000000 0.9737112   0.9779250   0.9779250   0.9779250   0.9957300   0.9900000   0.9604000   0.9945706   1.0000000   0.8697870   0.9387920
539.0000000 0.9738288   0.9782610   0.9782610   0.9782610   1.0025100   0.9900000   0.9604000   0.9946043   1.0000000   0.8697870   0.9390470
540.0000000 0.9739504   0.9786080   0.9786080   0.9786080   1.0084100   0.9900000   0.9604000   0.9946380   1.0000000   0.8697870   0.9392800
541.0000000 0.9740720   0.9789620   0.9789620   0.9789620   1.0088400   0.9900000   0.9604000   0.9946717   1.0000000   0.8697870   0.9394890
542.0000000 0.9741936   0.9793180   0.9793180   0.9793180   0.9992300   0.9900000   0.9604000   0.9947054   1.0000000   0.8697870   0.9396720
543.0000000 0.9743112   0.9796720   0.9796720   0.9796720   0.9749980   0.9900000   0.9604000   0.9947390   1.0000000   0.8697870   0.9398280
544.0000000 0.9744329   0.9800200   0.9800200   0.9800200   0.9321500   0.9900000   0.9604000   0.9947727   1.0000000   0.8697870   0.9399550
545.0000000 0.9745545   0.9803590   0.9803590   0.9803590   0.8746810   0.9900000   0.9604000   0.9948064   1.0000000   0.8697870   0.9400500
546.0000000 0.9746722   0.9806880   0.9806880   0.9806880   0.8061040   0.9900000   0.9604000   0.9948401   1.0000000   0.8697870   0.9401130
547.0000000 0.9747938   0.9810020   0.9810020   0.9810020   0.7299310   0.9900000   0.9604000   0.9948738   1.0000000   0.8697870   0.9401410
548.0000000 0.9749116   0.9813020   0.9813020   0.9813020   0.6496730   0.9900000   0.9604000   0.9949074   1.0000000   0.8697870   0.9401320
549.0000000 0.9750293   0.9815840   0.9815840   0.9815840   0.5667610   0.9900000   0.9604000   0.9949411   1.0000000   0.8697870   0.9400860
550.0000000 0.9751470   0.9818490   0.9818490   0.9818490   0.4797650   0.9900000   0.9604000   0.9949748   1.0000000   0.8697870   0.9400000
551.0000000 0.9752648   0.9820910   0.9820910   0.9820910   0.3931830   0.9900000   0.9604000   0.9950085   1.0000000   0.8697870   0.9396780
552.0000000 0.9753787   0.9823130   0.9823130   0.9823130   0.3115130   0.9900000   0.9604000   0.9950421   1.0000000   0.8697870   0.9393270
553.0000000 0.9754964   0.9825160   0.9825160   0.9825160   0.2392540   0.9900000   0.9604000   0.9950758   1.0000000   0.8697870   0.9389460
554.0000000 0.9756103   0.9827000   0.9827000   0.9827000   0.1775920   0.9900000   0.9604000   0.9951095   1.0000000   0.8697870   0.9385370
555.0000000 0.9757242   0.9828630   0.9828630   0.9828630   0.1253410   0.9900000   0.9604000   0.9951431   1.0000000   0.8697870   0.9381000
556.0000000 0.9758381   0.9830060   0.9830060   0.9830060   0.0824839   0.9900000   0.9604000   0.9951768   1.0000000   0.8697870   0.9376360
557.0000000 0.9759520   0.9831300   0.9831300   0.9831300   0.0490057   0.9900000   0.9604000   0.9952104   1.0000000   0.8697870   0.9371450
558.0000000 0.9760619   0.9832330   0.9832330   0.9832330   0.0248902   0.9900000   0.9604000   0.9952441   1.0000000   0.8697870   0.9366280
559.0000000 0.9761759   0.9833170   0.9833170   0.9833170   0.0080115   0.9900000   0.9604000   0.9952777   1.0000000   0.8697870   0.9360870
560.0000000 0.9762859   0.9833800   0.9833800   0.9833800   0.0004954   0.9900000   0.9604000   0.9953114   1.0000000   0.8697870   0.9355200
